ALV-7004 or ALV-7004/FAST Data
Date :	"3/27/2010"
Time :	"12:01:35 PM"
Samplename : 	"BSA 4 g/l in YCl3 8.3mM"
SampMemo(0) : 	""
SampMemo(1) : 	""
SampMemo(2) : 	""
SampMemo(3) : 	""
SampMemo(4) : 	""
SampMemo(5) : 	""
SampMemo(6) : 	""
SampMemo(7) : 	""
SampMemo(8) : 	""
SampMemo(9) : 	""
Temperature [K] :	     295.72600
Viscosity [cp]  :	       0.94167
Refractive Index:	       1.33200
Wavelength [nm] :	     632.80000
Angle [°]       :	     110.00000
Duration [s]    :	        50
Runs            :	         1
Mode            :	"C-CH0/1+1/0"
MeanCR0 [kHz]   :	     232.10723
MeanCR1 [kHz]   :	     276.74672
MeanCR2 [kHz]   :	       0.00000
MeanCR3 [kHz]   :	       0.00000

"Correlation"
  3.12500E-006	  9.85412E-001	  9.97959E-001	 -3.00000E+000	 -3.00000E+000
  6.25000E-006	  9.69860E-001	  9.42116E-001	 -3.00000E+000	 -3.00000E+000
  9.37500E-006	  9.90771E-001	  1.02613E+000	 -3.00000E+000	 -3.00000E+000
  1.25000E-005	  9.33358E-001	  9.12477E-001	 -3.00000E+000	 -3.00000E+000
  1.56250E-005	  1.00444E+000	  1.01113E+000	 -3.00000E+000	 -3.00000E+000
  1.87500E-005	  1.01064E+000	  1.01100E+000	 -3.00000E+000	 -3.00000E+000
  2.18750E-005	  1.00301E+000	  1.00494E+000	 -3.00000E+000	 -3.00000E+000
  2.50000E-005	  9.87483E-001	  9.95517E-001	 -3.00000E+000	 -3.00000E+000
  2.81250E-005	  9.85246E-001	  9.87341E-001	 -3.00000E+000	 -3.00000E+000
  3.12500E-005	  1.01049E+000	  1.02958E+000	 -3.00000E+000	 -3.00000E+000
  3.43750E-005	  9.72377E-001	  9.72180E-001	 -3.00000E+000	 -3.00000E+000
  3.75000E-005	  9.87415E-001	  9.62289E-001	 -3.00000E+000	 -3.00000E+000
  4.06250E-005	  9.85468E-001	  9.91880E-001	 -3.00000E+000	  1.40789E+000
  4.37500E-005	  9.93398E-001	  9.89999E-001	 -3.00000E+000	  1.45898E+000
  4.68750E-005	  1.01475E+000	  9.91712E-001	 -3.00000E+000	 -8.90899E-001
  5.00000E-005	  1.00175E+000	  9.87517E-001	 -3.00000E+000	  2.75153E+000
  5.62500E-005	  9.79608E-001	  9.65097E-001	 -3.00000E+000	  1.32295E+000
  6.25000E-005	  9.90859E-001	  9.86894E-001	 -3.00000E+000	  1.35826E+000
  6.87500E-005	  9.66004E-001	  9.53244E-001	 -2.87612E+000	  1.56684E+000
  7.50000E-005	  9.79794E-001	  1.01454E+000	  2.57795E+000	  1.06114E+000
  8.12500E-005	  9.95680E-001	  9.82230E-001	  1.29498E+000	  1.10315E+000
  8.75000E-005	  9.78123E-001	  9.61064E-001	  1.33795E+000	  1.10025E+000
  9.37500E-005	  9.92389E-001	  1.00371E+000	  1.25206E+000	  1.12755E+000
  1.00000E-004	  9.92676E-001	  9.91836E-001	  1.12434E+000	  1.03921E+000
  1.12500E-004	  9.77991E-001	  9.84440E-001	  1.14378E+000	  1.06760E+000
  1.25000E-004	  9.62957E-001	  9.54454E-001	  1.05628E+000	  1.06903E+000
  1.37500E-004	  9.86108E-001	  9.71914E-001	  1.01242E+000	  1.04066E+000
  1.50000E-004	  9.74633E-001	  9.73312E-001	  9.97037E-001	  1.03230E+000
  1.62500E-004	  9.70658E-001	  9.68705E-001	  9.66664E-001	  1.04862E+000
  1.75000E-004	  9.76706E-001	  9.70405E-001	  9.61124E-001	  1.02262E+000
  1.87500E-004	  9.76326E-001	  9.91978E-001	  9.82528E-001	  1.02801E+000
  2.00000E-004	  9.72404E-001	  9.66265E-001	  9.74679E-001	  1.01783E+000
  2.25000E-004	  9.73119E-001	  9.78508E-001	  9.60769E-001	  1.00817E+000
  2.50000E-004	  9.71223E-001	  9.63920E-001	  9.62763E-001	  1.02031E+000
  2.75000E-004	  9.74104E-001	  9.76721E-001	  9.65680E-001	  9.96789E-001
  3.00000E-004	  9.70827E-001	  9.72581E-001	  9.61456E-001	  1.00796E+000
  3.25000E-004	  9.63706E-001	  9.59174E-001	  9.60435E-001	  9.93687E-001
  3.50000E-004	  9.68591E-001	  9.65567E-001	  9.62505E-001	  9.99384E-001
  3.75000E-004	  9.68566E-001	  9.60641E-001	  9.78056E-001	  1.00957E+000
  4.00000E-004	  9.62839E-001	  9.59081E-001	  9.61807E-001	  9.99773E-001
  4.50000E-004	  9.53016E-001	  9.52874E-001	  9.66560E-001	  9.94360E-001
  5.00000E-004	  9.63418E-001	  9.62351E-001	  9.72972E-001	  9.88058E-001
  5.50000E-004	  9.62590E-001	  9.65444E-001	  9.69577E-001	  9.90601E-001
  6.00000E-004	  9.53676E-001	  9.49594E-001	  9.60452E-001	  9.86648E-001
  6.50000E-004	  9.54999E-001	  9.56202E-001	  9.53468E-001	  9.85279E-001
  7.00000E-004	  9.53283E-001	  9.48967E-001	  9.54666E-001	  9.78532E-001
  7.50000E-004	  9.48467E-001	  9.48448E-001	  9.51503E-001	  9.69494E-001
  8.00000E-004	  9.48818E-001	  9.47190E-001	  9.47868E-001	  9.69152E-001
  9.00000E-004	  9.38405E-001	  9.38824E-001	  9.50265E-001	  9.62385E-001
  1.00000E-003	  9.35665E-001	  9.37280E-001	  9.39419E-001	  9.63123E-001
  1.10000E-003	  9.35053E-001	  9.29486E-001	  9.38206E-001	  9.58080E-001
  1.20000E-003	  9.25590E-001	  9.22725E-001	  9.32404E-001	  9.50619E-001
  1.30000E-003	  9.23981E-001	  9.22143E-001	  9.24687E-001	  9.40312E-001
  1.40000E-003	  9.12277E-001	  9.11839E-001	  9.12264E-001	  9.41610E-001
  1.50000E-003	  9.15827E-001	  9.13883E-001	  9.10548E-001	  9.35618E-001
  1.60000E-003	  9.07810E-001	  9.08634E-001	  9.08891E-001	  9.29821E-001
  1.80000E-003	  8.96784E-001	  8.95063E-001	  9.02759E-001	  9.21491E-001
  2.00000E-003	  8.88668E-001	  8.89325E-001	  8.88341E-001	  9.11942E-001
  2.20000E-003	  8.82044E-001	  8.79691E-001	  8.76267E-001	  8.99094E-001
  2.40000E-003	  8.71593E-001	  8.70718E-001	  8.75056E-001	  8.90772E-001
  2.60000E-003	  8.62414E-001	  8.62423E-001	  8.64963E-001	  8.82404E-001
  2.80000E-003	  8.54420E-001	  8.51946E-001	  8.60409E-001	  8.75062E-001
  3.00000E-003	  8.47489E-001	  8.47732E-001	  8.50092E-001	  8.63993E-001
  3.20000E-003	  8.33559E-001	  8.32972E-001	  8.43051E-001	  8.56893E-001
  3.60000E-003	  8.20721E-001	  8.21866E-001	  8.27199E-001	  8.38043E-001
  4.00000E-003	  8.04865E-001	  8.03936E-001	  8.10721E-001	  8.19869E-001
  4.40000E-003	  7.85987E-001	  7.85027E-001	  7.93330E-001	  8.00821E-001
  4.80000E-003	  7.71520E-001	  7.71777E-001	  7.78456E-001	  7.89551E-001
  5.20000E-003	  7.55398E-001	  7.55063E-001	  7.63908E-001	  7.70779E-001
  5.60000E-003	  7.40270E-001	  7.38669E-001	  7.47824E-001	  7.56921E-001
  6.00000E-003	  7.23167E-001	  7.21296E-001	  7.34164E-001	  7.40275E-001
  6.40000E-003	  7.09527E-001	  7.07502E-001	  7.20294E-001	  7.25776E-001
  7.20000E-003	  6.84412E-001	  6.84104E-001	  6.89321E-001	  6.98845E-001
  8.00000E-003	  6.56798E-001	  6.54709E-001	  6.64313E-001	  6.69235E-001
  8.80000E-003	  6.30326E-001	  6.29948E-001	  6.36612E-001	  6.43658E-001
  9.60000E-003	  6.05758E-001	  6.05462E-001	  6.10704E-001	  6.18022E-001
  1.04000E-002	  5.80022E-001	  5.80990E-001	  5.86596E-001	  5.93390E-001
  1.12000E-002	  5.58549E-001	  5.58496E-001	  5.64813E-001	  5.70990E-001
  1.20000E-002	  5.36298E-001	  5.35625E-001	  5.42377E-001	  5.47433E-001
  1.28000E-002	  5.14949E-001	  5.14643E-001	  5.21377E-001	  5.25529E-001
  1.44000E-002	  4.75456E-001	  4.75534E-001	  4.79361E-001	  4.87387E-001
  1.60000E-002	  4.40108E-001	  4.39773E-001	  4.43172E-001	  4.47704E-001
  1.76000E-002	  4.05053E-001	  4.05053E-001	  4.10768E-001	  4.14825E-001
  1.92000E-002	  3.74481E-001	  3.75589E-001	  3.78406E-001	  3.82613E-001
  2.08000E-002	  3.46893E-001	  3.46905E-001	  3.50512E-001	  3.51276E-001
  2.24000E-002	  3.19920E-001	  3.20541E-001	  3.22858E-001	  3.25885E-001
  2.40000E-002	  2.94984E-001	  2.95595E-001	  2.97676E-001	  3.01644E-001
  2.56000E-002	  2.73075E-001	  2.74384E-001	  2.76394E-001	  2.79214E-001
  2.88000E-002	  2.33070E-001	  2.33102E-001	  2.36179E-001	  2.39063E-001
  3.20000E-002	  1.99072E-001	  1.99416E-001	  2.00059E-001	  2.03549E-001
  3.52000E-002	  1.69598E-001	  1.69048E-001	  1.71005E-001	  1.73559E-001
  3.84000E-002	  1.45500E-001	  1.45428E-001	  1.46689E-001	  1.48694E-001
  4.16000E-002	  1.23739E-001	  1.23742E-001	  1.25319E-001	  1.25573E-001
  4.48000E-002	  1.05381E-001	  1.05431E-001	  1.06940E-001	  1.07628E-001
  4.80000E-002	  8.98871E-002	  9.06110E-002	  9.03936E-002	  9.28786E-002
  5.12000E-002	  7.82716E-002	  7.84379E-002	  7.80010E-002	  7.98231E-002
  5.76000E-002	  5.68355E-002	  5.70236E-002	  5.79298E-002	  5.83193E-002
  6.40000E-002	  4.26024E-002	  4.31111E-002	  4.23812E-002	  4.27241E-002
  7.04000E-002	  3.09644E-002	  3.10199E-002	  3.18808E-002	  3.13785E-002
  7.68000E-002	  2.27554E-002	  2.27919E-002	  2.41118E-002	  2.30596E-002
  8.32000E-002	  1.62374E-002	  1.64119E-002	  1.67021E-002	  1.60847E-002
  8.96000E-002	  1.25516E-002	  1.27506E-002	  1.23419E-002	  1.18939E-002
  9.60000E-002	  8.83005E-003	  8.81942E-003	  9.82166E-003	  8.74234E-003
  1.02400E-001	  6.70405E-003	  7.11776E-003	  6.85515E-003	  7.15217E-003
  1.15200E-001	  3.70744E-003	  3.83161E-003	  3.43251E-003	  3.72243E-003
  1.28000E-001	  1.99905E-003	  2.10402E-003	  1.62282E-003	  2.08044E-003
  1.40800E-001	  1.03832E-003	  1.04871E-003	  5.14819E-004	  1.29885E-003
  1.53600E-001	  7.51978E-004	  7.21289E-004	  4.58763E-004	  7.46222E-004
  1.66400E-001	  3.38819E-004	  4.91889E-004	  1.38212E-004	  4.49951E-004
  1.79200E-001	  6.45630E-004	  7.49758E-004	  1.28382E-004	  7.30882E-005
  1.92000E-001	  6.72921E-004	  7.48834E-004	  2.85504E-004	  5.24245E-004
  2.04800E-001	  8.64686E-004	  8.05500E-004	  8.78863E-004	  1.03919E-003
  2.30400E-001	  9.74320E-004	  1.10817E-003	  9.25190E-004	  4.73163E-004
  2.56000E-001	  5.43382E-004	  2.21093E-004	  1.70125E-003	 -3.37399E-004
  2.81600E-001	  4.84738E-004	  5.14508E-004	  6.66424E-004	 -4.56005E-004
  3.07200E-001	  7.35159E-004	  8.87472E-004	  5.82074E-004	  2.37754E-004
  3.32800E-001	  3.56752E-004	 -6.68296E-005	 -5.74417E-005	 -6.43223E-005
  3.58400E-001	  4.39580E-004	  1.77174E-004	  1.21837E-004	  6.07389E-004
  3.84000E-001	  5.82197E-004	  3.49159E-004	  1.93481E-004	  8.61086E-004
  4.09600E-001	  2.92628E-004	  1.46891E-004	  2.71910E-004	  4.07956E-004
  4.60800E-001	 -7.51863E-004	 -9.91586E-004	 -6.65897E-004	 -4.88586E-004
  5.12000E-001	 -6.73169E-005	 -1.02400E-004	 -6.70435E-004	 -2.36275E-004
  5.63200E-001	  1.47489E-004	 -4.23504E-006	  5.41994E-005	  5.04817E-004
  6.14400E-001	 -1.77180E-004	 -1.82113E-005	 -4.07760E-004	 -3.99120E-004
  6.65600E-001	  3.87513E-004	  3.33579E-004	  7.00668E-005	  2.70782E-004
  7.16800E-001	  5.66311E-004	  7.54924E-004	  6.67479E-004	  4.10965E-004
  7.68000E-001	 -2.29110E-004	  6.62150E-005	 -8.71098E-005	  2.24609E-004
  8.19200E-001	  3.03597E-004	  6.38595E-004	 -1.07053E-004	  6.44222E-004
  9.21600E-001	  6.22124E-004	  4.88089E-004	  4.84733E-004	  6.35671E-004
  1.02400E+000	  4.01298E-004	  4.32563E-004	  3.16129E-004	  3.51396E-004
  1.12640E+000	 -1.64703E-004	  1.17975E-005	 -2.64886E-004	 -2.53168E-004
  1.22880E+000	 -4.44510E-004	 -4.58776E-004	 -6.53698E-004	 -2.02601E-004
  1.33120E+000	 -3.53801E-004	 -4.24281E-004	 -7.79295E-005	 -5.16939E-004
  1.43360E+000	 -4.69736E-004	 -3.48433E-004	 -4.85871E-004	 -4.21569E-004
  1.53600E+000	 -3.01004E-004	 -2.41007E-004	 -2.27633E-004	 -4.59627E-004
  1.63840E+000	 -2.83592E-004	 -3.12895E-004	 -5.19095E-004	 -2.30565E-004
  1.84320E+000	  1.30725E-004	  1.72854E-004	  1.46492E-005	  1.09098E-004
  2.04800E+000	 -9.09645E-005	 -1.81749E-004	  7.28359E-005	  2.44332E-005
  2.25280E+000	 -2.08847E-005	 -8.52658E-005	 -3.63554E-005	 -1.79907E-004
  2.45760E+000	  8.03801E-005	  2.55457E-004	  3.80840E-005	  1.33855E-004
  2.66240E+000	 -1.66798E-004	 -2.62093E-004	 -3.39801E-004	 -1.46186E-004
  2.86720E+000	  3.00730E-004	  3.68403E-004	  3.99127E-004	  3.39116E-004
  3.07200E+000	 -3.39707E-004	 -3.84611E-004	 -4.74418E-006	 -3.58568E-004
  3.27680E+000	 -1.56777E-004	 -1.36642E-004	 -1.14251E-004	 -1.99079E-004
  3.68640E+000	  3.42387E-004	  4.49333E-004	  2.43738E-004	  3.82002E-004
  4.09600E+000	  2.30510E-005	 -1.18132E-004	 -1.29928E-004	  1.61167E-004
  4.50560E+000	  3.92894E-005	  8.41278E-006	 -5.34833E-006	 -2.66023E-005
  4.91520E+000	 -7.70369E-005	 -2.32026E-004	 -9.41527E-005	 -6.48490E-005
  5.32480E+000	  6.52872E-007	  4.77692E-005	 -2.97678E-006	 -4.34080E-005
  5.73440E+000	  1.80753E-004	  2.76202E-004	  2.14039E-004	  1.65487E-004
  6.14400E+000	  7.77806E-005	  1.56280E-004	 -3.16754E-005	  1.56468E-004
  6.55360E+000	  9.06566E-005	  7.56955E-005	  1.10042E-004	  7.99181E-005
  7.37280E+000	  8.77689E-007	 -6.86873E-005	  9.08558E-005	 -1.15572E-004
  8.19200E+000	  9.90801E-005	  1.40425E-004	  2.28340E-004	  1.67940E-004
  9.01120E+000	 -2.29818E-004	 -2.73530E-004	 -1.95314E-004	 -2.45606E-004
  9.83040E+000	  5.22482E-005	 -7.39320E-005	  1.73744E-004	 -7.33442E-005
  1.06496E+001	 -1.69999E-004	 -1.76212E-004	 -6.54253E-005	 -3.46299E-004
  1.14688E+001	  2.74526E-005	 -8.20397E-005	 -4.24542E-005	  1.80812E-004
  1.22880E+001	 -2.98496E-006	  1.11131E-005	 -9.15177E-005	  3.01697E-005
  1.31072E+001	 -1.14929E-004	 -1.54384E-004	 -8.34815E-005	 -1.03265E-004
  1.47456E+001	 -8.61785E-005	 -9.02380E-005	  1.57624E-005	 -8.14491E-005
  1.63840E+001	 -9.19654E-005	 -1.82359E-004	 -1.73545E-004	 -8.09773E-005
  1.80224E+001	  8.47551E-005	  1.11068E-004	  4.39769E-005	  1.44014E-004
  1.96608E+001	 -5.14930E-005	  1.10996E-005	  1.33937E-005	 -5.25066E-005
  2.12992E+001	  3.92217E-005	  4.31417E-005	  2.15273E-005	  1.50243E-004
  2.29376E+001	 -5.75590E-005	  4.27609E-005	  3.80903E-005	 -1.37958E-004
  2.45760E+001	  1.23586E-004	  6.14613E-005	  1.42681E-004	  2.06047E-004
  2.62144E+001	  6.88167E-005	  3.70317E-005	  1.25054E-004	  7.03700E-005
  2.94912E+001	 -1.01089E-004	 -1.11973E-004	 -6.44856E-005	 -1.16564E-004
  3.27680E+001	 -8.73572E-005	 -7.84352E-005	 -9.53612E-005	 -9.86958E-005
  3.60448E+001	 -9.24471E-005	 -9.30224E-005	 -1.32725E-004	 -7.80639E-005
  3.93216E+001	  1.79187E-005	 -1.40611E-005	  1.20626E-005	  1.77386E-005
  4.25984E+001	  4.12304E-005	  1.13843E-004	  2.03860E-005	  7.58293E-005
  4.58752E+001	 -1.65049E-004	 -2.11021E-004	 -1.03451E-004	 -1.94159E-004
  4.91520E+001	 -1.21297E-004	 -1.24158E-004	 -9.64116E-005	 -1.15638E-004
  5.24288E+001	 -2.79787E-005	  3.63563E-006	  8.35815E-006	 -3.13723E-005
  5.89824E+001	 -1.00798E-004	 -8.99679E-005	 -1.11425E-004	 -6.48910E-005
  6.55360E+001	 -1.54875E-005	 -9.20258E-006	  2.84319E-005	 -3.37617E-005
  7.20896E+001	  9.96195E-006	 -1.06633E-005	  1.09428E-005	 -1.37941E-005
  7.86432E+001	 -4.13255E-005	 -2.36663E-005	 -8.19050E-005	 -3.48980E-005
  8.51968E+001	 -2.68193E-005	 -1.27915E-006	 -3.69099E-005	 -2.45920E-005
  9.17504E+001	 -3.02976E-005	 -2.98287E-005	 -2.98898E-005	  4.77446E-007
  9.83040E+001	  1.51573E-005	  4.67812E-005	  2.40067E-006	 -2.23411E-005
  1.04858E+002	 -2.59227E-005	 -7.19218E-006	 -4.24126E-005	 -2.18429E-005
  1.17965E+002	 -1.99761E-005	 -2.87894E-005	 -2.45735E-005	 -2.34447E-005
  1.31072E+002	 -1.86295E-005	 -5.78305E-005	 -2.44842E-005	 -2.88642E-005
  1.44179E+002	  5.74345E-005	  4.68660E-005	  7.84219E-005	  3.36502E-005
  1.57286E+002	 -1.08067E-005	 -3.12911E-006	  1.42809E-005	 -1.04199E-005
  1.70394E+002	 -6.15318E-005	 -3.55344E-005	 -8.66824E-005	 -1.45023E-005
  1.83501E+002	  2.31035E-005	  2.61390E-005	  2.37978E-005	  3.39892E-005
  1.96608E+002	 -3.42895E-005	 -2.73913E-005	 -1.02216E-005	 -5.10089E-005
  2.09715E+002	 -3.65461E-006	 -2.37511E-007	  4.30182E-005	 -4.15546E-005
  2.35930E+002	 -2.78502E-005	 -1.18020E-005	 -1.54727E-005	 -3.08023E-005
  2.62144E+002	 -1.30455E-005	 -1.52337E-005	 -2.70337E-005	  1.83420E-005
  2.88358E+002	  4.64333E-006	 -4.84387E-006	 -1.79437E-006	  1.48612E-005
  3.14573E+002	  3.37646E-006	  5.43368E-006	  1.39716E-005	 -1.56348E-005
  3.40787E+002	  1.34080E-005	  5.90863E-006	  2.43426E-005	  1.26927E-005
  3.67002E+002	 -1.83623E-005	 -1.69354E-005	 -2.54952E-005	 -1.35111E-005
  3.93216E+002	  7.34039E-007	  1.77360E-005	  7.13953E-006	  5.73532E-006
  4.19430E+002	  1.44247E-005	  1.97824E-005	  1.09379E-005	  2.32556E-005
  4.71859E+002	  5.27787E-006	  9.12632E-006	  3.30756E-006	  6.93688E-006
  5.24288E+002	 -4.24169E-006	 -3.71793E-006	 -2.43932E-006	 -9.28918E-006
  5.76717E+002	 -4.54157E-006	 -4.65303E-006	 -1.33161E-005	  2.53277E-007
  6.29146E+002	  1.30451E-006	 -7.59823E-006	  1.16282E-005	  1.26020E-005
  6.81574E+002	  1.61134E-005	  2.05225E-005	  1.61323E-005	  1.58105E-005
  7.34003E+002	 -3.06011E-006	  9.36038E-008	 -4.30665E-006	 -1.45022E-005
  7.86432E+002	  1.46109E-005	  4.01363E-006	  1.34710E-005	  1.48617E-005
  8.38861E+002	 -2.85252E-006	 -1.88448E-006	 -5.65571E-006	  5.86954E-006
  9.43718E+002	  1.25083E-005	  9.85057E-006	  1.44356E-005	  1.25077E-005
  1.04858E+003	 -1.62347E-005	 -2.10201E-005	 -2.07640E-005	 -9.82613E-006
  1.15343E+003	 -8.18728E-006	 -4.93486E-006	 -1.52229E-005	 -3.05520E-007
  1.25829E+003	  1.06046E-006	  1.59381E-006	  2.62243E-006	 -3.12865E-006
  1.36315E+003	  1.86087E-005	  2.54100E-005	  2.07661E-005	  2.26110E-005
  1.46801E+003	  9.02324E-007	 -6.68528E-006	 -1.05905E-005	  1.38883E-005
  1.57286E+003	 -1.48344E-005	 -1.74020E-005	 -1.58573E-005	 -1.97241E-005
  1.67772E+003	 -9.87976E-006	 -1.18698E-005	 -9.57863E-006	 -2.02072E-005
  1.88744E+003	  7.85473E-006	  5.36657E-006	  8.40708E-007	  1.19801E-005
  2.09715E+003	 -7.55316E-006	 -7.76218E-006	 -2.87389E-006	 -1.38370E-005
  2.30687E+003	  8.47305E-006	  4.31455E-006	  1.43974E-005	  6.58087E-006
  2.51658E+003	  8.10721E-007	 -3.84439E-008	  1.01478E-005	 -1.76409E-006
  2.72630E+003	  1.47318E-006	 -2.35761E-007	  7.84412E-007	  3.20399E-007
  2.93601E+003	  1.85343E-005	  1.47231E-005	  1.53194E-005	  1.74780E-005
  3.14573E+003	 -7.91252E-006	 -9.39559E-006	 -2.50327E-006	 -7.34326E-006
  3.35544E+003	 -6.06240E-006	 -3.37128E-006	 -2.59434E-006	 -4.65867E-006
  3.77487E+003	  4.91704E-007	  5.99799E-007	 -3.59096E-006	  9.98050E-006
  4.19430E+003	  5.46880E-006	  2.53874E-006	  4.71719E-006	  5.26567E-007
  4.61373E+003	  8.06497E-006	  5.42498E-006	  8.46770E-006	  2.42703E-006
  5.03317E+003	  2.96121E-007	  2.77144E-006	  2.01180E-006	  1.41200E-006
  5.45260E+003	 -2.52716E-006	 -6.09637E-006	 -4.69879E-007	 -6.08984E-006
  5.87203E+003	 -1.23736E-006	  1.84706E-006	  1.22116E-007	 -6.14614E-007
  6.29146E+003	  4.69770E-006	  4.84262E-006	 -6.90014E-007	  9.25757E-006
  6.71089E+003	  4.99200E-006	  9.28883E-006	 -8.28770E-007	  8.09280E-006
  7.54975E+003	  2.60594E-006	  3.13418E-006	  5.98314E-006	 -4.01396E-006
  8.38861E+003	  2.60127E-006	  7.09669E-006	  5.03496E-006	 -7.56542E-007
  9.22747E+003	 -4.47634E-006	 -4.41629E-006	 -8.67267E-006	 -1.60827E-006
  1.00663E+004	 -4.61146E-007	 -1.08406E-006	 -3.07939E-006	  3.35857E-006
  1.09052E+004	  2.90634E-006	  3.10668E-006	  3.96767E-006	  4.58235E-008
  1.17441E+004	 -2.37767E-006	 -1.46847E-006	 -6.26283E-006	  1.41722E-006

"Count Rate"
       0.19531	     230.93042	     273.69855	     230.93042	     273.69855
       0.39063	     230.24969	     273.72412	     230.24969	     273.72412
       0.58594	     232.13321	     279.03177	     232.13321	     279.03177
       0.78125	     230.56703	     273.08435	     230.56703	     273.08435
       0.97656	     230.73080	     276.11948	     230.73080	     276.11948
       1.17188	     231.75446	     276.45215	     231.75446	     276.45215
       1.36719	     232.76276	     275.87891	     232.76276	     275.87891
       1.56250	     232.09227	     278.07465	     232.09227	     278.07465
       1.75781	     229.78905	     275.85843	     229.78905	     275.85843
       1.95313	     230.85876	     279.39005	     230.85876	     279.39005
       2.14844	     228.69887	     274.05170	     228.69887	     274.05170
       2.34375	     233.63799	     277.66006	     233.63799	     277.66006
       2.53906	     226.16022	     270.97052	     226.16022	     270.97052
       2.73438	     230.01425	     274.06705	     230.01425	     274.06705
       2.92969	     234.08838	     277.86481	     234.08838	     277.86481
       3.12500	     231.08910	     274.55841	     231.08910	     274.55841
       3.32031	     235.80812	     278.46362	     235.80812	     278.46362
       3.51563	     235.24512	     278.44315	     235.24512	     278.44315
       3.71094	     232.72182	     278.69907	     232.72182	     278.69907
       3.90625	     232.40959	     276.85651	     232.40959	     276.85651
       4.10156	     232.84976	     277.05612	     232.84976	     277.05612
       4.29688	     229.37448	     276.71832	     229.37448	     276.71832
       4.49219	     234.97896	     278.89355	     234.97896	     278.89355
       4.68750	     232.01549	     279.50775	     232.01549	     279.50775
       4.88281	     229.42053	     273.37610	     229.42053	     273.37610
       5.07813	     230.67451	     278.30496	     230.67451	     278.30496
       5.27344	     232.22534	     277.99786	     232.22534	     277.99786
       5.46875	     229.61504	     274.60446	     229.61504	     274.60446
       5.66406	     229.09808	     275.35684	     229.09808	     275.35684
       5.85938	     231.64186	     274.15918	     231.64186	     274.15918
       6.05469	     235.95654	     278.90381	     235.95654	     278.90381
       6.25000	     232.34818	     278.90381	     232.34818	     278.90381
       6.44531	     231.85683	     276.38562	     231.85683	     276.38562
       6.64063	     235.00455	     278.04395	     235.00455	     278.04395
       6.83594	     233.92461	     277.37857	     233.92461	     277.37857
       7.03125	     230.06032	     273.46310	     230.06032	     273.46310
       7.22656	     233.06473	     275.62302	     233.06473	     275.62302
       7.42188	     232.76276	     275.10605	     232.76276	     275.10605
       7.61719	     235.54709	     279.72784	     235.54709	     279.72784
       7.81250	     229.37959	     271.26736	     229.37959	     271.26736
       8.00781	     230.22922	     273.55011	     230.22922	     273.55011
       8.20313	     234.27264	     280.15778	     234.27264	     280.15778
       8.39844	     231.27846	     276.29349	     231.27846	     276.29349
       8.59375	     230.76152	     274.47650	     230.76152	     274.47650
       8.78906	     230.92531	     277.92621	     230.92531	     277.92621
       8.98438	     228.96501	     276.61594	     228.96501	     276.61594
       9.17969	     231.87730	     275.66907	     231.87730	     275.66907
       9.37500	     232.81906	     279.23648	     232.81906	     279.23648
       9.57031	     232.10251	     275.82260	     232.10251	     275.82260
       9.76563	     232.81393	     278.56088	     232.81393	     278.56088
       9.96094	     229.56897	     275.60764	     229.56897	     275.60764
      10.15625	     233.35135	     281.02786	     233.35135	     281.02786
      10.35156	     231.10445	     277.21478	     231.10445	     277.21478
      10.54688	     228.78076	     273.70364	     228.78076	     273.70364
      10.74219	     233.89389	     279.62036	     233.89389	     279.62036
      10.93750	     229.31305	     276.96912	     229.31305	     276.96912
      11.13281	     229.06226	     273.17136	     229.06226	     273.17136
      11.32813	     233.02890	     276.06317	     233.02890	     276.06317
      11.52344	     232.39937	     276.47263	     232.39937	     276.47263
      11.71875	     229.34888	     270.72482	     229.34888	     270.72482
      11.91406	     235.04037	     279.56406	     235.04037	     279.56406
      12.10938	     229.17487	     276.90768	     229.17487	     276.90768
      12.30469	     227.59843	     271.08310	     227.59843	     271.08310
      12.50000	     235.42937	     278.57111	     235.42937	     278.57111
      12.69531	     227.84923	     271.37485	     227.84923	     271.37485
      12.89063	     230.56703	     276.95374	     230.56703	     276.95374
      13.08594	     228.01814	     272.64417	     228.01814	     272.64417
      13.28125	     230.43907	     276.18600	     230.43907	     276.18600
      13.47656	     231.22217	     277.23526	     231.22217	     277.23526
      13.67188	     233.19269	     277.54236	     233.19269	     277.54236
      13.86719	     228.20239	     273.82651	     228.20239	     273.82651
      14.06250	     232.26628	     278.10025	     232.26628	     278.10025
      14.25781	     233.06473	     278.85773	     233.06473	     278.85773
      14.45313	     230.27017	     276.32419	     230.27017	     276.32419
      14.64844	     232.04108	     275.83798	     232.04108	     275.83798
      14.84375	     227.56773	     273.79068	     227.56773	     273.79068
      15.03906	     232.35841	     276.26279	     232.35841	     276.26279
      15.23438	     231.54462	     279.99399	     231.54462	     279.99399
      15.42969	     233.26434	     283.14172	     233.26434	     283.14172
      15.62500	     231.92337	     276.93839	     231.92337	     276.93839
      15.82031	     230.34694	     275.90451	     230.34694	     275.90451
      16.01563	     232.03085	     275.22379	     232.03085	     275.22379
      16.21094	     231.94383	     275.04974	     231.94383	     275.04974
      16.40625	     235.15810	     279.10342	     235.15810	     279.10342
      16.60156	     231.78517	     277.53210	     231.78517	     277.53210
      16.79688	     232.61945	     278.36639	     232.61945	     278.36639
      16.99219	     232.17928	     275.96591	     232.17928	     275.96591
      17.18750	     234.32382	     277.80338	     234.32382	     277.80338
      17.38281	     232.93166	     275.56671	     232.93166	     275.56671
      17.57813	     233.35648	     276.91281	     233.35648	     276.91281
      17.77344	     231.03790	     274.83478	     231.03790	     274.83478
      17.96875	     232.40448	     279.13412	     232.40448	     279.13412
      18.16406	     230.94066	     272.96661	     230.94066	     272.96661
      18.35938	     232.32771	     275.33127	     232.32771	     275.33127
      18.55469	     230.73080	     274.08240	     230.73080	     274.08240
      18.75000	     231.67258	     276.42657	     231.67258	     276.42657
      18.94531	     231.31429	     274.79895	     231.31429	     274.79895
      19.14063	     231.01744	     272.96661	     231.01744	     272.96661
      19.33594	     237.41013	     282.82437	     237.41013	     282.82437
      19.53125	     228.67839	     272.21423	     228.67839	     272.21423
      19.72656	     229.60480	     273.96469	     229.60480	     273.96469
      19.92188	     230.35718	     274.94739	     230.35718	     274.94739
      20.11719	     230.29576	     271.97882	     230.29576	     271.97882
      20.31250	     229.20557	     273.83160	     229.20557	     273.83160
      20.50781	     230.64893	     273.25836	     230.64893	     273.25836
      20.70313	     232.77299	     275.87381	     232.77299	     275.87381
      20.89844	     232.27141	     278.38174	     232.27141	     278.38174
      21.09375	     234.53368	     278.81680	     234.53368	     278.81680
      21.28906	     229.32329	     273.35049	     229.32329	     273.35049
      21.48438	     230.46979	     274.33319	     230.46979	     274.33319
      21.67969	     237.84006	     280.34204	     237.84006	     280.34204
      21.87500	     233.02379	     276.29861	     233.02379	     276.29861
      22.07031	     236.03333	     280.74637	     236.03333	     280.74637
      22.26563	     231.45760	     276.32419	     231.45760	     276.32419
      22.46094	     231.95920	     277.18408	     231.95920	     277.18408
      22.65625	     226.97913	     271.14966	     226.97913	     271.14966
      22.85156	     230.33670	     274.54306	     230.33670	     274.54306
      23.04688	     229.92725	     274.27179	     229.92725	     274.27179
      23.24219	     231.10445	     274.51233	     231.10445	     274.51233
      23.43750	     238.00385	     282.95746	     238.00385	     282.95746
      23.63281	     232.33794	     276.69785	     232.33794	     276.69785
      23.82813	     229.76346	     272.56229	     229.76346	     272.56229
      24.02344	     233.11592	     279.20578	     233.11592	     279.20578
      24.21875	     236.14081	     279.16483	     236.14081	     279.16483
      24.41406	     230.58238	     273.64737	     230.58238	     273.64737
      24.60938	     232.12297	     277.31201	     232.12297	     277.31201
      24.80469	     233.52538	     278.13608	     233.52538	     278.13608
      25.00000	     231.02766	     280.55701	     231.02766	     280.55701
      25.19531	     232.04620	     277.35297	     232.04620	     277.35297
      25.39063	     230.74617	     271.78430	     230.74617	     271.78430
      25.58594	     234.09351	     277.32739	     234.09351	     277.32739
      25.78125	     233.64821	     278.66837	     233.64821	     278.66837
      25.97656	     231.76982	     277.03052	     231.76982	     277.03052
      26.17188	     232.48637	     276.51871	     232.48637	     276.51871
      26.36719	     233.87341	     276.11435	     233.87341	     276.11435
      26.56250	     233.83247	     276.22696	     233.83247	     276.22696
      26.75781	     229.86583	     274.09775	     229.86583	     274.09775
      26.95313	     231.42177	     275.84821	     231.42177	     275.84821
      27.14844	     231.62138	     278.05930	     231.62138	     278.05930
      27.34375	     234.14981	     276.02734	     234.14981	     276.02734
      27.53906	     231.64697	     276.84625	     231.64697	     276.84625
      27.73438	     233.71986	     277.07660	     233.71986	     277.07660
      27.92969	     233.64310	     278.21796	     233.64310	     278.21796
      28.12500	     233.95531	     277.67542	     233.95531	     277.67542
      28.32031	     227.39883	     273.27371	     227.39883	     273.27371
      28.51563	     229.32329	     273.20206	     229.32329	     273.20206
      28.71094	     231.71352	     274.49188	     231.71352	     274.49188
      28.90625	     234.56950	     279.05734	     234.56950	     279.05734
      29.10156	     232.39937	     279.68176	     232.39937	     279.68176
      29.29688	     227.98743	     272.51624	     227.98743	     272.51624
      29.49219	     233.87854	     276.26791	     233.87854	     276.26791
      29.68750	     231.59579	     274.52771	     231.59579	     274.52771
      29.88281	     232.18951	     277.85455	     232.18951	     277.85455
      30.07813	     233.16199	     273.54498	     233.16199	     273.54498
      30.27344	     230.97137	     275.95056	     230.97137	     275.95056
      30.46875	     234.05255	     279.35422	     234.05255	     279.35422
      30.66406	     230.83829	     273.56033	     230.83829	     273.56033
      30.85938	     233.64310	     281.41174	     233.64310	     281.41174
      31.05469	     230.74617	     275.09070	     230.74617	     275.09070
      31.25000	     232.39937	     277.41949	     232.39937	     277.41949
      31.44531	     232.31235	     274.97809	     232.31235	     274.97809
      31.64063	     230.92018	     274.15918	     230.92018	     274.15918
      31.83594	     231.87730	     278.59158	     231.87730	     278.59158
      32.03125	     230.61310	     276.55963	     230.61310	     276.55963
      32.22656	     232.02061	     276.61081	     232.02061	     276.61081
      32.42188	     231.45248	     276.62619	     231.45248	     276.62619
      32.61719	     229.88118	     274.57376	     229.88118	     274.57376
      32.81250	     228.29964	     276.56989	     228.29964	     276.56989
      33.00781	     232.92142	     278.23843	     232.92142	     278.23843
      33.20313	     235.70575	     279.24673	     235.70575	     279.24673
      33.39844	     232.68086	     278.86798	     232.68086	     278.86798
      33.59375	     232.69110	     281.57553	     232.69110	     281.57553
      33.78906	     232.80882	     279.37469	     232.80882	     279.37469
      33.98438	     233.83247	     277.29156	     233.83247	     277.29156
      34.17969	     228.94453	     274.42532	     228.94453	     274.42532
      34.37500	     232.11786	     279.49753	     232.11786	     279.49753
      34.57031	     232.46590	     277.80338	     232.46590	     277.80338
      34.76563	     232.41472	     274.48676	     232.41472	     274.48676
      34.96094	     234.17027	     282.43027	     234.17027	     282.43027
      35.15625	     234.20099	     278.09000	     234.20099	     278.09000
      35.35156	     233.03403	     278.01834	     233.03403	     278.01834
      35.54688	     229.70204	     273.81625	     229.70204	     273.81625
      35.74219	     228.80635	     270.14136	     228.80635	     270.14136
      35.93750	     234.58997	     281.64206	     234.58997	     281.64206
      36.13281	     229.08784	     277.83408	     229.08784	     277.83408
      36.32813	     230.10638	     274.55841	     230.10638	     274.55841
      36.52344	     231.14027	     275.96082	     231.14027	     275.96082
      36.71875	     231.79028	     276.01712	     231.79028	     276.01712
      36.91406	     230.84853	     274.18478	     230.84853	     274.18478
      37.10938	     235.90025	     281.73419	     235.90025	     281.73419
      37.30469	     231.64697	     277.02029	     231.64697	     277.02029
      37.50000	     233.66869	     276.09387	     233.66869	     276.09387
      37.69531	     231.07886	     276.83603	     231.07886	     276.83603
      37.89063	     234.71281	     278.83725	     234.71281	     278.83725
      38.08594	     230.79735	     276.73367	     230.79735	     276.73367
      38.28125	     235.59827	     279.25696	     235.59827	     279.25696
      38.47656	     236.37624	     279.47192	     236.37624	     279.47192
      38.67188	     235.85930	     277.58841	     235.85930	     277.58841
      38.86719	     231.50879	     276.12970	     231.50879	     276.12970
      39.06250	     232.73717	     276.14505	     232.73717	     276.14505
      39.25781	     232.64503	     276.71320	     232.64503	     276.71320
      39.45313	     231.78006	     275.84821	     231.78006	     275.84821
      39.64844	     236.48885	     279.46680	     236.48885	     279.46680
      39.84375	     228.33035	     278.32544	     228.33035	     278.32544
      40.03906	     234.55414	     278.21283	     234.55414	     278.21283
      40.23438	     230.97649	     275.76120	     230.97649	     275.76120
      40.42969	     235.62898	     281.73932	     235.62898	     281.73932
      40.62500	     231.33989	     274.19501	     231.33989	     274.19501
      40.82031	     232.36865	     274.00565	     232.36865	     274.00565
      41.01563	     230.24458	     277.03052	     230.24458	     277.03052
      41.21094	     232.07690	     278.01834	     232.07690	     278.01834
      41.40625	     232.56827	     278.42270	     232.56827	     278.42270
      41.60156	     233.08521	     276.85138	     233.08521	     276.85138
      41.79688	     230.32135	     274.32297	     230.32135	     274.32297
      41.99219	     232.82417	     276.24231	     232.82417	     276.24231
      42.18750	     233.04427	     278.96521	     233.04427	     278.96521
      42.38281	     233.59703	     276.00174	     233.59703	     276.00174
      42.57813	     239.08891	     281.65231	     239.08891	     281.65231
      42.77344	     233.47420	     278.63254	     233.47420	     278.63254
      42.96875	     233.16710	     279.29279	     233.16710	     279.29279
      43.16406	     234.40060	     279.66132	     234.40060	     279.66132
      43.35938	     230.10638	     272.62881	     230.10638	     272.62881
      43.55469	     232.78323	     278.20261	     232.78323	     278.20261
      43.75000	     235.80299	     278.49435	     235.80299	     278.49435
      43.94531	     232.14856	     277.45023	     232.14856	     277.45023
      44.14063	     228.84729	     274.64029	     228.84729	     274.64029
      44.33594	     232.43520	     276.24231	     232.43520	     276.24231
      44.53125	     233.46907	     277.24548	     233.46907	     277.24548
      44.72656	     231.23241	     274.65054	     231.23241	     274.65054
      44.92188	     231.20169	     277.33249	     231.20169	     277.33249
      45.11719	     231.57532	     278.37662	     231.57532	     278.37662
      45.31250	     229.55362	     275.12140	     229.55362	     275.12140
      45.50781	     232.60921	     278.39197	     232.60921	     278.39197
      45.70313	     230.92531	     273.94421	     230.92531	     273.94421
      45.89844	     233.92972	     277.54745	     233.92972	     277.54745
      46.09375	     233.79665	     278.43805	     233.79665	     278.43805
      46.28906	     229.55873	     275.43875	     229.55873	     275.43875
      46.48438	     232.31235	     276.59546	     232.31235	     276.59546
      46.67969	     231.33989	     277.56793	     231.33989	     277.56793
      46.87500	     230.87924	     275.00882	     230.87924	     275.00882
      47.07031	     234.27776	     281.21725	     234.27776	     281.21725
      47.26563	     234.19075	     280.62354	     234.19075	     280.62354
      47.46094	     230.15756	     275.99664	     230.15756	     275.99664
      47.65625	     229.03156	     273.38120	     229.03156	     273.38120
      47.85156	     229.86583	     273.52451	     229.86583	     273.52451
      48.04688	     232.37889	     275.71002	     232.37889	     275.71002
      48.24219	     230.92018	     273.69342	     230.92018	     273.69342
      48.43750	     231.36548	     277.35297	     231.36548	     277.35297
      48.63281	     231.92848	     274.36902	     231.92848	     274.36902
      48.82813	     230.93042	     274.40485	     230.93042	     274.40485
      49.02344	     232.92654	     279.10852	     232.92654	     279.10852
      49.21875	     232.78323	     278.27426	     232.78323	     278.27426
      49.41406	     231.59579	     275.14188	     231.59579	     275.14188
      49.60938	     234.41083	     280.58771	     234.41083	     280.58771

Monitor Diode	1632472.50
"StandardDeviation"
  3.12500E-006	  1.24911E-002
  6.25000E-006	  1.24912E-002
  9.37500E-006	  1.24912E-002
  1.25000E-005	  1.24912E-002
  1.56250E-005	  1.24913E-002
  1.87500E-005	  1.24911E-002
  2.18750E-005	  1.24912E-002
  2.50000E-005	  1.24913E-002
  2.81250E-005	  1.24096E-002
  3.12500E-005	  1.24912E-002
  3.43750E-005	  1.24655E-002
  3.75000E-005	  1.24858E-002
  4.06250E-005	  1.24912E-002
  4.37500E-005	  1.24386E-002
  4.68750E-005	  1.24886E-002
  5.00000E-005	  8.84015E-003
  5.62500E-005	  8.80143E-003
  6.25000E-005	  8.80860E-003
  6.87500E-005	  8.81195E-003
  7.50000E-005	  8.83254E-003
  8.12500E-005	  8.81686E-003
  8.75000E-005	  8.80692E-003
  9.37500E-005	  8.79830E-003
  1.00000E-004	  6.24194E-003
  1.12500E-004	  6.24029E-003
  1.25000E-004	  6.22429E-003
  1.37500E-004	  6.24920E-003
  1.50000E-004	  6.23377E-003
  1.62500E-004	  6.24103E-003
  1.75000E-004	  6.23307E-003
  1.87500E-004	  6.24316E-003
  2.00000E-004	  4.43069E-003
  2.25000E-004	  4.42443E-003
  2.50000E-004	  4.42214E-003
  2.75000E-004	  4.42821E-003
  3.00000E-004	  4.41440E-003
  3.25000E-004	  4.42058E-003
  3.50000E-004	  4.41999E-003
  3.75000E-004	  4.41601E-003
  4.00000E-004	  3.14196E-003
  4.50000E-004	  3.14192E-003
  5.00000E-004	  3.14155E-003
  5.50000E-004	  3.14547E-003
  6.00000E-004	  3.14179E-003
  6.50000E-004	  3.13710E-003
  7.00000E-004	  3.13753E-003
  7.50000E-004	  3.13948E-003
  8.00000E-004	  2.24882E-003
  9.00000E-004	  2.24393E-003
  1.00000E-003	  2.24427E-003
  1.10000E-003	  2.24512E-003
  1.20000E-003	  2.23942E-003
  1.30000E-003	  2.23868E-003
  1.40000E-003	  2.23801E-003
  1.50000E-003	  2.23790E-003
  1.60000E-003	  1.61941E-003
  1.80000E-003	  1.61752E-003
  2.00000E-003	  1.61579E-003
  2.20000E-003	  1.61391E-003
  2.40000E-003	  1.61149E-003
  2.60000E-003	  1.60941E-003
  2.80000E-003	  1.60782E-003
  3.00000E-003	  1.60520E-003
  3.20000E-003	  1.18531E-003
  3.60000E-003	  1.18272E-003
  4.00000E-003	  1.17918E-003
  4.40000E-003	  1.17588E-003
  4.80000E-003	  1.17281E-003
  5.20000E-003	  1.16971E-003
  5.60000E-003	  1.16665E-003
  6.00000E-003	  1.16334E-003
  6.40000E-003	  8.85160E-004
  7.20000E-003	  8.80309E-004
  8.00000E-003	  8.75348E-004
  8.80000E-003	  8.70378E-004
  9.60000E-003	  8.65971E-004
  1.04000E-002	  8.61344E-004
  1.12000E-002	  8.57348E-004
  1.20000E-002	  8.53007E-004
  1.28000E-002	  6.73470E-004
  1.44000E-002	  6.65784E-004
  1.60000E-002	  6.59098E-004
  1.76000E-002	  6.52539E-004
  1.92000E-002	  6.46837E-004
  2.08000E-002	  6.41300E-004
  2.24000E-002	  6.35852E-004
  2.40000E-002	  6.30998E-004
  2.56000E-002	  5.16510E-004
  2.88000E-002	  5.07890E-004
  3.20000E-002	  5.00992E-004
  3.52000E-002	  4.94652E-004
  3.84000E-002	  4.89427E-004
  4.16000E-002	  4.84684E-004
  4.48000E-002	  4.80722E-004
  4.80000E-002	  4.77375E-004
  5.12000E-002	  4.05038E-004
  5.76000E-002	  4.00270E-004
  6.40000E-002	  3.97022E-004
  7.04000E-002	  3.94343E-004
  7.68000E-002	  3.92348E-004
  8.32000E-002	  3.87324E-004
  8.96000E-002	  3.87324E-004
  9.60000E-002	  3.87324E-004
  1.02400E-001	  3.39716E-004
  1.15200E-001	  3.39716E-004
  1.28000E-001	  3.39716E-004
  1.40800E-001	  3.39716E-004
  1.53600E-001	  3.39716E-004
  1.66400E-001	  3.39716E-004
  1.79200E-001	  3.39716E-004
  1.92000E-001	  3.39716E-004
  2.04800E-001	  2.98074E-004
  2.30400E-001	  2.98074E-004
  2.56000E-001	  2.98074E-004
  2.81600E-001	  2.98074E-004
  3.07200E-001	  2.98074E-004
  3.32800E-001	  2.98074E-004
  3.58400E-001	  2.98074E-004
  3.84000E-001	  2.98074E-004
  4.09600E-001	  2.53694E-004
  4.60800E-001	  2.53694E-004
  5.12000E-001	  2.53694E-004
  5.63200E-001	  2.53694E-004
  6.14400E-001	  2.53694E-004
  6.65600E-001	  2.53694E-004
  7.16800E-001	  2.53694E-004
  7.68000E-001	  2.53694E-004
  8.19200E-001	  2.08268E-004
  9.21600E-001	  2.08268E-004
  1.02400E+000	  2.08268E-004
  1.12640E+000	  2.08268E-004
  1.22880E+000	  2.08268E-004
  1.33120E+000	  2.08268E-004
  1.43360E+000	  2.08268E-004
  1.53600E+000	  2.08268E-004
  1.63840E+000	  1.59541E-004
  1.84320E+000	  1.59541E-004
  2.04800E+000	  1.59541E-004
  2.25280E+000	  1.59541E-004
  2.45760E+000	  1.59541E-004
  2.66240E+000	  1.59541E-004
  2.86720E+000	  1.59541E-004
  3.07200E+000	  1.59541E-004
  3.27680E+000	  1.17370E-004
  3.68640E+000	  1.17370E-004
  4.09600E+000	  1.17370E-004
  4.50560E+000	  1.17370E-004
  4.91520E+000	  1.17370E-004
  5.32480E+000	  1.17370E-004
  5.73440E+000	  1.17370E-004
  6.14400E+000	  1.17370E-004
  6.55360E+000	  8.46066E-005
  7.37280E+000	  8.46066E-005
  8.19200E+000	  8.46066E-005
  9.01120E+000	  8.46066E-005
  9.83040E+000	  8.46066E-005
  1.06496E+001	  8.46066E-005
  1.14688E+001	  8.46066E-005
  1.22880E+001	  8.46066E-005
  1.31072E+001	  6.03962E-005
  1.47456E+001	  6.03962E-005
  1.63840E+001	  6.03962E-005
  1.80224E+001	  6.03962E-005
  1.96608E+001	  6.03962E-005
  2.12992E+001	  6.03962E-005
  2.29376E+001	  6.03962E-005
  2.45760E+001	  6.03962E-005
  2.62144E+001	  4.29082E-005
  2.94912E+001	  4.29082E-005
  3.27680E+001	  4.29082E-005
  3.60448E+001	  4.29082E-005
  3.93216E+001	  4.29082E-005
  4.25984E+001	  4.29082E-005
  4.58752E+001	  4.29082E-005
  4.91520E+001	  4.29082E-005
  5.24288E+001	  3.04120E-005
  5.89824E+001	  3.04120E-005
  6.55360E+001	  3.04120E-005
  7.20896E+001	  3.04120E-005
  7.86432E+001	  3.04120E-005
  8.51968E+001	  3.04120E-005
  9.17504E+001	  3.04120E-005
  9.83040E+001	  3.04120E-005
  1.04858E+002	  2.15297E-005
  1.17965E+002	  2.15297E-005
  1.31072E+002	  2.15297E-005
  1.44179E+002	  2.15297E-005
  1.57286E+002	  2.15297E-005
  1.70394E+002	  2.15297E-005
  1.83501E+002	  2.15297E-005
  1.96608E+002	  2.15297E-005
  2.09715E+002	  1.52327E-005
  2.35930E+002	  1.52327E-005
  2.62144E+002	  1.52327E-005
  2.88358E+002	  1.52327E-005
  3.14573E+002	  1.52327E-005
  3.40787E+002	  1.52327E-005
  3.67002E+002	  1.52327E-005
  3.93216E+002	  1.52327E-005
  4.19430E+002	  1.07743E-005
  4.71859E+002	  1.07743E-005
  5.24288E+002	  1.07743E-005
  5.76717E+002	  1.07743E-005
  6.29146E+002	  1.07743E-005
  6.81574E+002	  1.07743E-005
  7.34003E+002	  1.07743E-005
  7.86432E+002	  1.07743E-005
  8.38861E+002	  7.61971E-006
  9.43718E+002	  7.61971E-006
  1.04858E+003	  7.61971E-006
  1.15343E+003	  7.61971E-006
  1.25829E+003	  7.61971E-006
  1.36315E+003	  7.61971E-006
  1.46801E+003	  7.61971E-006
  1.57286E+003	  7.61971E-006
  1.67772E+003	  5.38834E-006
  1.88744E+003	  5.38834E-006
  2.09715E+003	  5.38834E-006
  2.30687E+003	  5.38834E-006
  2.51658E+003	  5.38834E-006
  2.72630E+003	  5.38834E-006
  2.93601E+003	  5.38834E-006
  3.14573E+003	  5.38834E-006
  3.35544E+003	  3.81027E-006
  3.77487E+003	  3.81027E-006
  4.19430E+003	  3.81027E-006
  4.61373E+003	  3.81027E-006
  5.03317E+003	  3.81027E-006
  5.45260E+003	  3.81027E-006
  5.87203E+003	  3.81027E-006
  6.29146E+003	  3.81027E-006
  6.71089E+003	  2.69432E-006
  7.54975E+003	  2.69432E-006
  8.38861E+003	  2.69432E-006
  9.22747E+003	  2.69432E-006
  1.00663E+004	  2.69432E-006
  1.09052E+004	  2.69432E-006
  1.17441E+004	  2.69432E-006
