ALV-7004 or ALV-7004/FAST Data
Date :	"3/28/2010"
Time :	"12:29:35 PM"
Samplename : 	"BSA 15 g/l in 8.3 mM YCl3"
SampMemo(0) : 	""
SampMemo(1) : 	""
SampMemo(2) : 	""
SampMemo(3) : 	""
SampMemo(4) : 	""
SampMemo(5) : 	""
SampMemo(6) : 	""
SampMemo(7) : 	""
SampMemo(8) : 	""
SampMemo(9) : 	""
Temperature [K] :	     295.63293
Viscosity [cp]  :	       0.94376
Refractive Index:	       1.33200
Wavelength [nm] :	     632.80000
Angle [°]       :	     110.00000
Duration [s]    :	        60
Runs            :	         1
Mode            :	"C-CH0/1+1/0"
MeanCR0 [kHz]   :	     313.96131
MeanCR1 [kHz]   :	     393.65519
MeanCR2 [kHz]   :	       0.00000
MeanCR3 [kHz]   :	       0.00000

"Correlation"
  3.12500E-006	  3.27243E-001	  3.22409E-001	 -1.00000E+000	 -1.00000E+000
  6.25000E-006	  3.11077E-001	  2.96983E-001	 -1.00000E+000	 -1.00000E+000
  9.37500E-006	  3.24330E-001	  3.23358E-001	 -1.00000E+000	 -1.00000E+000
  1.25000E-005	  3.19603E-001	  3.11962E-001	 -1.00000E+000	 -1.00000E+000
  1.56250E-005	  3.46410E-001	  3.54008E-001	 -1.00000E+000	 -1.00000E+000
  1.87500E-005	  3.53360E-001	  3.65447E-001	 -1.00000E+000	 -1.00000E+000
  2.18750E-005	  3.30589E-001	  3.34150E-001	 -1.00000E+000	 -1.00000E+000
  2.50000E-005	  3.31128E-001	  3.24006E-001	 -1.00000E+000	 -1.00000E+000
  2.81250E-005	  3.19948E-001	  3.18480E-001	 -1.00000E+000	 -1.00000E+000
  3.12500E-005	  3.33201E-001	  3.26078E-001	 -1.00000E+000	 -1.00000E+000
  3.43750E-005	  3.26747E-001	  3.17056E-001	 -1.00000E+000	 -9.99966E-001
  3.75000E-005	  3.33503E-001	  3.15890E-001	 -1.00000E+000	 -1.00000E+000
  4.06250E-005	  3.39309E-001	  3.42352E-001	 -1.00000E+000	  4.32101E-001
  4.37500E-005	  3.41208E-001	  3.45503E-001	 -1.00000E+000	  5.18690E-001
  4.68750E-005	  3.39028E-001	  3.25171E-001	 -1.00000E+000	 -2.91421E-001
  5.00000E-005	  3.35143E-001	  3.34366E-001	 -1.00000E+000	  9.01951E-001
  5.62500E-005	  3.25085E-001	  3.17379E-001	 -1.00000E+000	  4.45442E-001
  6.25000E-005	  3.39557E-001	  3.36330E-001	 -1.00000E+000	  4.50675E-001
  6.87500E-005	  3.30524E-001	  3.29251E-001	 -9.72937E-001	  5.09291E-001
  7.50000E-005	  3.28948E-001	  3.23963E-001	  8.18021E-001	  3.42827E-001
  8.12500E-005	  3.39892E-001	  3.30071E-001	  4.56760E-001	  3.68167E-001
  8.75000E-005	  3.29186E-001	  3.29229E-001	  4.66746E-001	  3.57494E-001
  9.37500E-005	  3.29402E-001	  3.31474E-001	  4.30509E-001	  3.62073E-001
  1.00000E-004	  3.27600E-001	  3.31765E-001	  3.80917E-001	  3.44824E-001
  1.12500E-004	  3.30260E-001	  3.32046E-001	  3.85572E-001	  3.56048E-001
  1.25000E-004	  3.31911E-001	  3.32413E-001	  3.56128E-001	  3.60222E-001
  1.37500E-004	  3.27443E-001	  3.23855E-001	  3.37765E-001	  3.48766E-001
  1.50000E-004	  3.30368E-001	  3.32283E-001	  3.36263E-001	  3.51262E-001
  1.62500E-004	  3.26191E-001	  3.29186E-001	  3.27306E-001	  3.53810E-001
  1.75000E-004	  3.30637E-001	  3.26089E-001	  3.25073E-001	  3.40589E-001
  1.87500E-004	  3.33120E-001	  3.33449E-001	  3.31162E-001	  3.42285E-001
  2.00000E-004	  3.36206E-001	  3.35386E-001	  3.31034E-001	  3.44174E-001
  2.25000E-004	  3.32572E-001	  3.31420E-001	  3.28348E-001	  3.43412E-001
  2.50000E-004	  3.30416E-001	  3.30713E-001	  3.25750E-001	  3.45982E-001
  2.75000E-004	  3.26593E-001	  3.22765E-001	  3.32759E-001	  3.36716E-001
  3.00000E-004	  3.29566E-001	  3.27956E-001	  3.18909E-001	  3.41988E-001
  3.25000E-004	  3.26383E-001	  3.24583E-001	  3.27590E-001	  3.45168E-001
  3.50000E-004	  3.26887E-001	  3.26250E-001	  3.26284E-001	  3.38420E-001
  3.75000E-004	  3.28142E-001	  3.28360E-001	  3.30506E-001	  3.40335E-001
  4.00000E-004	  3.26988E-001	  3.26553E-001	  3.27218E-001	  3.38717E-001
  4.50000E-004	  3.28363E-001	  3.28010E-001	  3.28121E-001	  3.38558E-001
  5.00000E-004	  3.27175E-001	  3.25692E-001	  3.25658E-001	  3.39029E-001
  5.50000E-004	  3.25167E-001	  3.24780E-001	  3.23926E-001	  3.32675E-001
  6.00000E-004	  3.26466E-001	  3.25455E-001	  3.23307E-001	  3.34758E-001
  6.50000E-004	  3.22952E-001	  3.21103E-001	  3.26490E-001	  3.35171E-001
  7.00000E-004	  3.22789E-001	  3.23016E-001	  3.26078E-001	  3.33303E-001
  7.50000E-004	  3.23287E-001	  3.23374E-001	  3.22357E-001	  3.31429E-001
  8.00000E-004	  3.21201E-001	  3.20523E-001	  3.22558E-001	  3.32678E-001
  9.00000E-004	  3.20490E-001	  3.20668E-001	  3.22357E-001	  3.29627E-001
  1.00000E-003	  3.17927E-001	  3.18028E-001	  3.19589E-001	  3.29676E-001
  1.10000E-003	  3.18988E-001	  3.18990E-001	  3.21051E-001	  3.28970E-001
  1.20000E-003	  3.15490E-001	  3.14833E-001	  3.21218E-001	  3.25593E-001
  1.30000E-003	  3.13785E-001	  3.12136E-001	  3.17475E-001	  3.23844E-001
  1.40000E-003	  3.14145E-001	  3.11722E-001	  3.13910E-001	  3.23506E-001
  1.50000E-003	  3.12434E-001	  3.14111E-001	  3.14069E-001	  3.21156E-001
  1.60000E-003	  3.11874E-001	  3.13263E-001	  3.11686E-001	  3.19503E-001
  1.80000E-003	  3.07908E-001	  3.06806E-001	  3.10442E-001	  3.16478E-001
  2.00000E-003	  3.06473E-001	  3.06474E-001	  3.05723E-001	  3.14593E-001
  2.20000E-003	  3.02882E-001	  3.03540E-001	  3.03794E-001	  3.12180E-001
  2.40000E-003	  2.99932E-001	  3.00200E-001	  3.00580E-001	  3.09373E-001
  2.60000E-003	  2.98203E-001	  2.98336E-001	  3.00405E-001	  3.07127E-001
  2.80000E-003	  2.95159E-001	  2.95396E-001	  2.99111E-001	  3.05799E-001
  3.00000E-003	  2.93085E-001	  2.92453E-001	  2.93978E-001	  3.01250E-001
  3.20000E-003	  2.91137E-001	  2.90768E-001	  2.92487E-001	  2.98954E-001
  3.60000E-003	  2.86767E-001	  2.87094E-001	  2.89358E-001	  2.93472E-001
  4.00000E-003	  2.81044E-001	  2.81246E-001	  2.84979E-001	  2.89563E-001
  4.40000E-003	  2.77757E-001	  2.77500E-001	  2.80623E-001	  2.83865E-001
  4.80000E-003	  2.73048E-001	  2.73024E-001	  2.75451E-001	  2.80139E-001
  5.20000E-003	  2.68854E-001	  2.68808E-001	  2.69275E-001	  2.75971E-001
  5.60000E-003	  2.64605E-001	  2.64113E-001	  2.66589E-001	  2.72037E-001
  6.00000E-003	  2.59882E-001	  2.59498E-001	  2.62649E-001	  2.67387E-001
  6.40000E-003	  2.55753E-001	  2.55707E-001	  2.58575E-001	  2.63131E-001
  7.20000E-003	  2.47739E-001	  2.47108E-001	  2.49443E-001	  2.53928E-001
  8.00000E-003	  2.39490E-001	  2.38912E-001	  2.41369E-001	  2.45809E-001
  8.80000E-003	  2.32343E-001	  2.31916E-001	  2.33895E-001	  2.38121E-001
  9.60000E-003	  2.24585E-001	  2.24442E-001	  2.27252E-001	  2.30652E-001
  1.04000E-002	  2.17609E-001	  2.17337E-001	  2.20004E-001	  2.23183E-001
  1.12000E-002	  2.10419E-001	  2.10542E-001	  2.12652E-001	  2.16281E-001
  1.20000E-002	  2.04069E-001	  2.04080E-001	  2.05121E-001	  2.09268E-001
  1.28000E-002	  1.97483E-001	  1.97430E-001	  1.99081E-001	  2.03015E-001
  1.44000E-002	  1.85392E-001	  1.85099E-001	  1.87480E-001	  1.90086E-001
  1.60000E-002	  1.74195E-001	  1.74316E-001	  1.75778E-001	  1.78375E-001
  1.76000E-002	  1.62963E-001	  1.63032E-001	  1.64045E-001	  1.67117E-001
  1.92000E-002	  1.52708E-001	  1.52808E-001	  1.54081E-001	  1.57102E-001
  2.08000E-002	  1.43111E-001	  1.43247E-001	  1.44861E-001	  1.47398E-001
  2.24000E-002	  1.34373E-001	  1.34308E-001	  1.35454E-001	  1.38075E-001
  2.40000E-002	  1.26227E-001	  1.26692E-001	  1.26642E-001	  1.29661E-001
  2.56000E-002	  1.18589E-001	  1.18476E-001	  1.18956E-001	  1.21755E-001
  2.88000E-002	  1.04448E-001	  1.04605E-001	  1.04737E-001	  1.07361E-001
  3.20000E-002	  9.20094E-002	  9.18918E-002	  9.23469E-002	  9.44368E-002
  3.52000E-002	  8.10798E-002	  8.11466E-002	  8.18424E-002	  8.34315E-002
  3.84000E-002	  7.18114E-002	  7.20062E-002	  7.17233E-002	  7.35988E-002
  4.16000E-002	  6.31649E-002	  6.33246E-002	  6.32848E-002	  6.51041E-002
  4.48000E-002	  5.57110E-002	  5.59316E-002	  5.53829E-002	  5.75412E-002
  4.80000E-002	  4.90014E-002	  4.91600E-002	  4.94046E-002	  5.05494E-002
  5.12000E-002	  4.35004E-002	  4.35616E-002	  4.34658E-002	  4.48542E-002
  5.76000E-002	  3.40753E-002	  3.40758E-002	  3.43393E-002	  3.51490E-002
  6.40000E-002	  2.67824E-002	  2.69042E-002	  2.70815E-002	  2.76636E-002
  7.04000E-002	  2.10405E-002	  2.13841E-002	  2.08934E-002	  2.15502E-002
  7.68000E-002	  1.64391E-002	  1.65832E-002	  1.65727E-002	  1.69660E-002
  8.32000E-002	  1.28420E-002	  1.31313E-002	  1.31779E-002	  1.33627E-002
  8.96000E-002	  1.02387E-002	  1.03325E-002	  1.02730E-002	  1.06711E-002
  9.60000E-002	  7.93820E-003	  7.98069E-003	  8.19559E-003	  8.10576E-003
  1.02400E-001	  6.45664E-003	  6.58387E-003	  6.59428E-003	  6.57790E-003
  1.15200E-001	  4.12665E-003	  4.26746E-003	  4.19903E-003	  4.13738E-003
  1.28000E-001	  3.00573E-003	  3.10541E-003	  2.97212E-003	  2.73949E-003
  1.40800E-001	  2.06568E-003	  2.08389E-003	  2.08628E-003	  2.00983E-003
  1.53600E-001	  1.49411E-003	  1.42795E-003	  1.60769E-003	  1.60452E-003
  1.66400E-001	  1.21110E-003	  1.20341E-003	  1.18772E-003	  1.33861E-003
  1.79200E-001	  6.69246E-004	  6.48368E-004	  7.43578E-004	  5.12170E-004
  1.92000E-001	  3.89812E-004	  3.89570E-004	  1.77056E-004	  3.29671E-004
  2.04800E-001	  3.29891E-004	  1.90126E-004	  2.65981E-004	  2.25473E-004
  2.30400E-001	  2.65453E-004	  1.69154E-004	  3.37580E-004	  2.55713E-004
  2.56000E-001	  4.60674E-004	  5.53468E-004	  4.88173E-004	  2.02067E-004
  2.81600E-001	  3.48727E-004	  3.65585E-004	  5.65194E-004	  1.91275E-004
  3.07200E-001	  1.18170E-004	  8.52355E-005	  1.59877E-004	  1.45372E-004
  3.32800E-001	  2.07812E-004	  3.27077E-004	  3.90410E-004	  2.06858E-004
  3.58400E-001	  1.91258E-004	  4.07470E-004	  3.37368E-004	  1.58420E-004
  3.84000E-001	  2.42651E-004	  3.96638E-004	  1.79617E-004	  2.33816E-004
  4.09600E-001	 -7.93541E-005	  3.91157E-005	 -1.05102E-004	  5.01766E-006
  4.60800E-001	  3.05448E-004	  3.41086E-004	  2.73734E-004	  2.52508E-004
  5.12000E-001	  5.50267E-005	  1.23261E-004	  1.46600E-004	  2.74149E-005
  5.63200E-001	  2.18307E-005	 -1.42323E-004	  7.99719E-005	  4.94864E-005
  6.14400E-001	 -4.38738E-005	 -5.34476E-005	 -3.16924E-004	  1.52046E-004
  6.65600E-001	  4.83562E-004	  5.53121E-004	  2.80076E-004	  3.96721E-004
  7.16800E-001	  5.84968E-004	  6.77605E-004	  6.94922E-004	  3.80310E-004
  7.68000E-001	  1.38433E-005	 -6.44474E-006	  3.89865E-005	 -4.82148E-005
  8.19200E-001	 -2.09509E-004	 -2.33477E-004	 -2.36718E-004	 -2.55640E-004
  9.21600E-001	 -6.02585E-005	 -6.21665E-005	  5.40123E-005	 -1.20393E-004
  1.02400E+000	  1.23246E-004	  6.36437E-005	  1.96184E-004	 -5.99809E-007
  1.12640E+000	  1.54431E-004	  3.34568E-005	  1.73024E-004	  7.74030E-005
  1.22880E+000	  1.30721E-004	  2.08885E-004	  2.06310E-004	  3.68412E-005
  1.33120E+000	 -3.67354E-005	  9.84692E-005	  2.79636E-006	  7.19134E-005
  1.43360E+000	  6.90557E-005	  1.88704E-004	 -8.81266E-005	  2.95539E-004
  1.53600E+000	 -4.84852E-005	  7.53513E-006	  1.03315E-005	 -1.35387E-004
  1.63840E+000	 -2.76156E-005	  2.53861E-005	  1.48414E-004	 -1.50399E-004
  1.84320E+000	 -5.77072E-005	 -1.17886E-004	 -6.34857E-005	 -6.87040E-006
  2.04800E+000	 -1.45953E-004	 -1.85261E-004	 -9.69180E-005	 -1.44241E-004
  2.25280E+000	 -5.80841E-005	 -7.50839E-005	  5.12909E-007	 -1.10429E-004
  2.45760E+000	  1.63729E-004	  2.28016E-004	  1.53779E-004	  2.25219E-004
  2.66240E+000	 -4.00649E-005	 -2.97347E-005	 -7.84868E-005	  7.98020E-006
  2.86720E+000	  1.17765E-004	  8.23570E-005	  7.84200E-006	  1.57581E-004
  3.07200E+000	  1.03181E-004	  1.11440E-004	  4.27496E-005	  1.48598E-004
  3.27680E+000	  6.06008E-005	  9.74540E-005	  5.06096E-005	  6.99862E-005
  3.68640E+000	 -1.32627E-004	 -8.98909E-005	 -8.91153E-005	 -1.97683E-004
  4.09600E+000	  1.15050E-005	 -7.91599E-006	 -7.39536E-006	 -1.42820E-005
  4.50560E+000	  1.28906E-005	  2.63139E-005	  2.51958E-005	  1.01932E-005
  4.91520E+000	 -1.55321E-004	 -1.68633E-004	 -1.83690E-004	 -1.38696E-004
  5.32480E+000	 -7.99309E-005	 -6.51104E-005	 -1.71752E-004	 -6.13036E-005
  5.73440E+000	  1.41978E-004	  2.36523E-004	  9.43024E-005	  2.17854E-004
  6.14400E+000	 -1.67655E-004	 -1.80283E-004	 -1.90705E-004	 -1.63462E-004
  6.55360E+000	 -2.19929E-005	  3.74438E-005	  1.43481E-005	 -7.66841E-005
  7.37280E+000	  3.96521E-005	  5.79926E-005	  3.80780E-007	  5.32225E-005
  8.19200E+000	  2.81096E-005	 -8.54867E-007	 -5.15254E-005	  4.59915E-005
  9.01120E+000	 -4.61419E-005	 -3.42470E-005	 -1.03117E-004	 -7.90584E-006
  9.83040E+000	  8.93826E-005	  1.28644E-004	  1.14302E-004	  8.37779E-005
  1.06496E+001	  2.33740E-004	  2.50247E-004	  2.88827E-004	  1.55709E-004
  1.14688E+001	  1.41982E-004	  9.41449E-005	  1.72020E-004	  1.50103E-004
  1.22880E+001	 -3.44331E-005	 -3.10450E-005	 -7.32380E-005	 -1.26575E-005
  1.31072E+001	 -2.05890E-005	 -1.97516E-006	 -3.26859E-005	 -3.28982E-005
  1.47456E+001	 -1.32951E-005	 -2.73676E-005	 -1.81416E-005	 -1.10728E-005
  1.63840E+001	  1.17401E-005	 -5.08292E-006	 -1.69198E-005	  3.97964E-005
  1.80224E+001	  2.61810E-005	  1.79513E-005	  2.82926E-005	  5.29935E-005
  1.96608E+001	  6.35616E-005	  4.86888E-005	  1.96201E-005	  7.42648E-005
  2.12992E+001	  4.61592E-005	  2.92546E-005	  2.74746E-005	  4.87152E-005
  2.29376E+001	 -1.66208E-005	 -1.01461E-005	 -2.90345E-005	 -1.17703E-005
  2.45760E+001	  3.61584E-005	  2.24066E-005	  1.84986E-005	  4.60705E-005
  2.62144E+001	  2.92210E-005	  2.33646E-005	  5.15774E-005	 -2.31556E-006
  2.94912E+001	 -3.39850E-005	 -2.20921E-005	 -4.66472E-006	 -5.49849E-005
  3.27680E+001	 -3.68190E-005	 -2.60975E-005	 -8.80912E-005	 -7.98438E-006
  3.60448E+001	 -3.64280E-005	 -2.14935E-005	 -2.65703E-005	 -3.28379E-005
  3.93216E+001	  5.33809E-006	 -1.00738E-005	  3.81618E-005	 -2.46024E-005
  4.25984E+001	  1.25307E-005	  2.87031E-005	 -9.45186E-006	  4.57732E-005
  4.58752E+001	  5.54957E-005	  7.68080E-005	  5.29805E-005	  4.99748E-005
  4.91520E+001	 -9.10114E-005	 -1.00472E-004	 -8.42723E-005	 -1.03601E-004
  5.24288E+001	 -3.62684E-005	 -1.65865E-005	 -4.89911E-005	 -2.87252E-005
  5.89824E+001	 -2.82472E-005	 -1.51065E-005	 -2.58581E-005	 -3.67417E-005
  6.55360E+001	 -5.67435E-007	  4.37771E-006	  8.87586E-007	  9.83697E-006
  7.20896E+001	  3.62406E-005	  3.87386E-005	  6.95954E-005	  1.58248E-005
  7.86432E+001	  7.06441E-006	  1.32474E-005	  1.97616E-005	 -7.73631E-006
  8.51968E+001	  5.87975E-005	  6.26740E-005	  6.27279E-005	  4.97546E-005
  9.17504E+001	  1.62085E-006	 -3.44428E-006	 -3.03388E-006	 -1.37538E-005
  9.83040E+001	 -1.15346E-005	 -2.06951E-005	  2.08028E-005	 -4.62162E-005
  1.04858E+002	  1.34423E-005	 -2.15858E-006	  2.65880E-005	  5.71468E-006
  1.17965E+002	  2.94639E-005	  1.01522E-005	  1.34476E-005	  4.47233E-005
  1.31072E+002	 -2.91783E-005	 -2.31109E-005	 -2.33068E-005	 -3.47104E-005
  1.44179E+002	 -1.67788E-005	 -1.67783E-005	 -1.58510E-005	 -1.42763E-005
  1.57286E+002	  3.11388E-005	  2.50239E-005	  3.11577E-005	  3.62147E-005
  1.70394E+002	  2.02404E-005	  3.18573E-005	  3.52574E-005	  9.72673E-006
  1.83501E+002	 -1.05063E-005	 -8.93878E-006	 -5.50053E-006	 -2.53019E-005
  1.96608E+002	  7.41015E-006	  9.81388E-006	  1.73562E-005	 -3.78968E-006
  2.09715E+002	  4.86734E-006	  4.04818E-006	  9.26488E-006	  1.75982E-006
  2.35930E+002	  2.18280E-005	  1.47665E-005	  1.53678E-005	  3.30732E-005
  2.62144E+002	  1.54231E-005	  1.36835E-005	  1.69522E-005	  9.86035E-006
  2.88358E+002	 -1.26433E-005	 -1.88754E-005	 -1.68930E-005	 -4.83301E-006
  3.14573E+002	 -2.87579E-005	 -1.99560E-005	 -1.36234E-005	 -4.41406E-005
  3.40787E+002	 -8.48901E-006	  3.51979E-008	  1.16179E-006	 -1.59260E-005
  3.67002E+002	  1.09575E-005	  1.16931E-005	  2.46972E-006	  2.33050E-005
  3.93216E+002	  1.91920E-006	  1.60680E-006	  8.14989E-006	 -5.14627E-006
  4.19430E+002	  5.30817E-006	  6.75890E-006	  1.13385E-005	 -9.64315E-007
  4.71859E+002	 -1.93563E-006	 -2.05920E-006	  2.41614E-006	 -8.29665E-006
  5.24288E+002	 -6.82206E-006	 -8.88798E-006	 -6.00637E-006	 -1.27313E-005
  5.76717E+002	  1.44415E-005	  5.99272E-006	  9.27011E-006	  1.53320E-005
  6.29146E+002	  4.62740E-006	 -2.43082E-006	  5.97257E-006	  7.26006E-006
  6.81574E+002	  4.24658E-007	  2.11254E-006	  2.26351E-006	 -5.41070E-006
  7.34003E+002	 -2.29746E-005	 -2.87922E-005	 -2.30703E-005	 -2.59405E-005
  7.86432E+002	 -7.47485E-006	 -1.05179E-005	 -1.36432E-005	  7.06494E-007
  8.38861E+002	 -6.05430E-006	 -8.11899E-006	 -1.21742E-005	  1.64795E-006
  9.43718E+002	  6.33538E-006	 -1.35384E-006	  7.68869E-006	  8.75163E-006
  1.04858E+003	 -2.92790E-006	 -3.08383E-006	 -8.71253E-006	 -1.10247E-006
  1.15343E+003	 -2.99765E-006	  2.04805E-006	 -1.64109E-006	 -4.04997E-006
  1.25829E+003	 -3.49322E-006	 -3.80984E-006	 -5.21647E-006	 -2.04631E-006
  1.36315E+003	  1.17901E-005	  2.08515E-005	  6.19896E-006	  1.38472E-005
  1.46801E+003	 -5.50018E-006	 -4.64806E-006	 -1.38217E-006	 -8.02063E-006
  1.57286E+003	  1.65104E-006	  1.05834E-006	  1.66997E-006	 -6.63306E-007
  1.67772E+003	 -4.47778E-007	 -1.21639E-006	  1.10520E-006	 -3.60842E-006
  1.88744E+003	  1.15501E-005	  1.19903E-005	  1.40056E-005	  1.15416E-005
  2.09715E+003	 -6.58933E-006	 -8.90762E-006	 -1.51739E-006	 -9.00059E-006
  2.30687E+003	 -8.13673E-008	 -1.84226E-006	  4.52822E-006	 -1.52272E-006
  2.51658E+003	 -5.83897E-006	 -7.88169E-006	 -8.15531E-006	 -2.58584E-006
  2.72630E+003	  8.49558E-006	  9.26066E-006	  5.80956E-006	  8.70089E-006
  2.93601E+003	  1.87893E-006	  2.40282E-006	  2.89918E-006	  1.82334E-006
  3.14573E+003	  3.96691E-006	  1.77778E-006	 -3.64401E-007	  5.90226E-006
  3.35544E+003	 -1.57374E-007	  1.04365E-007	 -4.89880E-006	  3.55801E-006
  3.77487E+003	 -9.74135E-006	 -7.92582E-006	 -1.02007E-005	 -9.70418E-006
  4.19430E+003	 -8.47309E-007	 -1.40574E-006	 -1.15002E-006	  2.91127E-008
  4.61373E+003	  1.12221E-007	  2.75595E-007	  3.55746E-007	  1.33635E-006
  5.03317E+003	 -8.05794E-006	 -9.39406E-006	 -6.58903E-006	 -1.06323E-005
  5.45260E+003	 -1.54578E-006	  2.06843E-006	 -4.46805E-006	  8.64664E-007
  5.87203E+003	  3.30577E-006	  3.95381E-006	  3.36164E-006	  3.45376E-006
  6.29146E+003	  6.39565E-006	  8.87881E-006	  7.32173E-006	  4.04609E-006
  6.71089E+003	  5.07472E-006	  5.28605E-006	  6.78760E-006	  2.75753E-006
  7.54975E+003	  5.16747E-007	  1.36113E-006	  1.28939E-006	 -1.84825E-007
  8.38861E+003	  4.24356E-006	  3.76779E-006	  4.06360E-006	  4.79828E-006
  9.22747E+003	  1.48946E-006	  1.36845E-006	  3.23971E-006	  1.08616E-006
  1.00663E+004	 -8.06121E-006	 -8.81131E-006	 -1.06125E-005	 -6.52907E-006
  1.09052E+004	 -5.62476E-007	  5.75962E-007	  1.66199E-006	 -1.75014E-006
  1.17441E+004	 -7.77094E-006	 -7.29196E-006	 -1.08475E-005	 -5.11707E-006

"Count Rate"
       0.23438	     313.03329	     391.89212	     313.03329	     391.89212
       0.46875	     308.72430	     389.21286	     308.72430	     389.21286
       0.70313	     318.02063	     395.82993	     318.02063	     395.82993
       0.93750	     317.43616	     399.82748	     317.43616	     399.82748
       1.17188	     310.10233	     394.95532	     310.10233	     394.95532
       1.40625	     311.89847	     392.50220	     311.89847	     392.50220
       1.64063	     315.67416	     395.10464	     315.67416	     395.10464
       1.87500	     314.26199	     391.86224	     314.26199	     391.86224
       2.10938	     311.38223	     390.13013	     311.38223	     390.13013
       2.34375	     315.35419	     397.31461	     315.35419	     397.31461
       2.57813	     315.58456	     396.63626	     315.58456	     396.63626
       2.81250	     313.19540	     390.73593	     313.19540	     390.73593
       3.04688	     313.49405	     393.25732	     313.49405	     393.25732
       3.28125	     314.86783	     395.16013	     314.86783	     395.16013
       3.51563	     314.15961	     393.48346	     314.15961	     393.48346
       3.75000	     311.99658	     391.35883	     311.99658	     391.35883
       3.98438	     316.18613	     396.33762	     316.18613	     396.33762
       4.21875	     315.64001	     396.65332	     315.64001	     396.65332
       4.45313	     313.94202	     396.08163	     313.94202	     396.08163
       4.68750	     318.33633	     396.73865	     318.33633	     396.73865
       4.92188	     312.80719	     391.71719	     312.80719	     391.71719
       5.15625	     315.92160	     394.52444	     315.92160	     394.52444
       5.39063	     313.43005	     392.85202	     313.43005	     392.85202
       5.62500	     316.09653	     394.65668	     316.09653	     394.65668
       5.85938	     316.19891	     394.78043	     316.19891	     394.78043
       6.09375	     310.76788	     386.80664	     310.76788	     386.80664
       6.32813	     306.87698	     387.40820	     306.87698	     387.40820
       6.56250	     311.97525	     394.23859	     311.97525	     394.23859
       6.79688	     312.11176	     396.56799	     312.11176	     396.56799
       7.03125	     314.66302	     396.48694	     314.66302	     396.48694
       7.26563	     311.55716	     389.04221	     311.55716	     389.04221
       7.50000	     310.61002	     390.08319	     310.61002	     390.08319
       7.73438	     318.59232	     398.72678	     318.59232	     398.72678
       7.96875	     311.79181	     389.87415	     311.79181	     389.87415
       8.20313	     309.47943	     385.64621	     309.47943	     385.64621
       8.43750	     315.12805	     395.85126	     315.12805	     395.85126
       8.67188	     312.77304	     392.10544	     312.77304	     392.10544
       8.90625	     308.71152	     390.47141	     308.71152	     390.47141
       9.14063	     310.81055	     390.35196	     310.81055	     390.35196
       9.37500	     314.60757	     393.21039	     314.60757	     393.21039
       9.60938	     316.86447	     396.44855	     316.86447	     396.44855
       9.84375	     314.92755	     393.89301	     314.92755	     393.89301
      10.07813	     313.15701	     391.20950	     313.15701	     391.20950
      10.31250	     317.48734	     401.18417	     317.48734	     401.18417
      10.54688	     311.48889	     388.89288	     311.48889	     388.89288
      10.78125	     313.21674	     390.64206	     313.21674	     390.64206
      11.01563	     317.93530	     398.03134	     317.93530	     398.03134
      11.25000	     316.15198	     396.69171	     316.15198	     396.69171
      11.48438	     314.05722	     395.01505	     314.05722	     395.01505
      11.71875	     314.01028	     391.09003	     314.01028	     391.09003
      11.95313	     315.80215	     392.80936	     315.80215	     392.80936
      12.18750	     316.67249	     397.11835	     316.67249	     397.11835
      12.42188	     313.06741	     392.09262	     313.06741	     392.09262
      12.65625	     312.56400	     391.36734	     312.56400	     391.36734
      12.89063	     315.60590	     393.00989	     315.60590	     393.00989
      13.12500	     315.64856	     395.65076	     315.64856	     395.65076
      13.35938	     310.92148	     391.01752	     310.92148	     391.01752
      13.59375	     314.30466	     390.62073	     314.30466	     390.62073
      13.82813	     314.13828	     396.40161	     314.13828	     396.40161
      14.06250	     315.38831	     399.41791	     315.38831	     399.41791
      14.29688	     314.12549	     394.43912	     314.12549	     394.43912
      14.53125	     311.77899	     391.49960	     311.77899	     391.49960
      14.76563	     317.51721	     396.28217	     317.51721	     396.28217
      15.00000	     313.91641	     392.53204	     313.91641	     392.53204
      15.23438	     309.97861	     390.71887	     309.97861	     390.71887
      15.46875	     312.71759	     393.22321	     312.71759	     393.22321
      15.70313	     313.72446	     393.30426	     313.72446	     393.30426
      15.93750	     310.91293	     389.23846	     310.91293	     389.23846
      16.17188	     316.39944	     399.11499	     316.39944	     399.11499
      16.40625	     318.17850	     398.02710	     318.17850	     398.02710
      16.64063	     317.65799	     400.86420	     317.65799	     400.86420
      16.87500	     310.81906	     387.71536	     310.81906	     387.71536
      17.10938	     318.80563	     399.08942	     318.80563	     399.08942
      17.34375	     311.76193	     391.09430	     311.76193	     391.09430
      17.57813	     311.10492	     394.15326	     311.10492	     394.15326
      17.81250	     312.23123	     393.29572	     312.23123	     393.29572
      18.04688	     313.94202	     391.24362	     313.94202	     391.24362
      18.28125	     320.91748	     401.65347	     320.91748	     401.65347
      18.51563	     318.39182	     399.22165	     318.39182	     399.22165
      18.75000	     313.91217	     391.70438	     313.91217	     391.70438
      18.98438	     313.16983	     390.88525	     313.16983	     390.88525
      19.21875	     318.64780	     399.62695	     318.64780	     399.62695
      19.45313	     316.18185	     396.47842	     316.18185	     396.47842
      19.68750	     312.50427	     396.43576	     312.50427	     396.43576
      19.92188	     311.95392	     393.25305	     311.95392	     393.25305
      20.15625	     311.45901	     392.05850	     311.45901	     392.05850
      20.39063	     318.05051	     399.03394	     318.05051	     399.03394
      20.62500	     315.07260	     392.90750	     315.07260	     392.90750
      20.85938	     315.66989	     394.30685	     315.66989	     394.30685
      21.09375	     314.74411	     392.11823	     314.74411	     392.11823
      21.32813	     314.36014	     392.28461	     314.36014	     392.28461
      21.56250	     306.30103	     385.04037	     306.30103	     385.04037
      21.79688	     311.55289	     394.91693	     311.55289	     394.91693
      22.03125	     311.36090	     393.93143	     311.36090	     393.93143
      22.26563	     317.80731	     397.63031	     317.80731	     397.63031
      22.50000	     317.63239	     399.23447	     317.63239	     399.23447
      22.73438	     317.19724	     397.82230	     317.19724	     397.82230
      22.96875	     321.04120	     402.78406	     321.04120	     402.78406
      23.20313	     310.30713	     388.49612	     310.30713	     388.49612
      23.43750	     310.22180	     388.29559	     310.22180	     388.29559
      23.67188	     308.37021	     387.82629	     308.37021	     387.82629
      23.90625	     308.88641	     392.64297	     308.88641	     392.64297
      24.14063	     313.60498	     394.68228	     313.60498	     394.68228
      24.37500	     314.17239	     393.54745	     314.17239	     393.54745
      24.60938	     309.40265	     387.11807	     309.40265	     387.11807
      24.84375	     318.57098	     395.88538	     318.57098	     395.88538
      25.07813	     316.79193	     398.59879	     316.79193	     398.59879
      25.31250	     313.44287	     398.03134	     313.44287	     398.03134
      25.54688	     315.79788	     396.58081	     315.79788	     396.58081
      25.78125	     319.04456	     395.38623	     319.04456	     395.38623
      26.01563	     314.17239	     395.52701	     314.17239	     395.52701
      26.25000	     313.80124	     394.28979	     313.80124	     394.28979
      26.48438	     312.73465	     393.70102	     312.73465	     393.70102
      26.71875	     312.63654	     390.19836	     312.63654	     390.19836
      26.95313	     317.19724	     396.33762	     317.19724	     396.33762
      27.18750	     313.30634	     391.05164	     313.30634	     391.05164
      27.42188	     310.19193	     386.72559	     310.19193	     386.72559
      27.65625	     315.87466	     395.45023	     315.87466	     395.45023
      27.89063	     309.81650	     388.25293	     309.81650	     388.25293
      28.12500	     312.20135	     391.57214	     312.20135	     391.57214
      28.35938	     316.21170	     399.14487	     316.21170	     399.14487
      28.59375	     315.29019	     394.08072	     315.29019	     394.08072
      28.82813	     313.34900	     391.62759	     313.34900	     391.62759
      29.06250	     318.22543	     398.15933	     318.22543	     398.15933
      29.29688	     310.96838	     391.03885	     310.96838	     391.03885
      29.53125	     310.08527	     388.76489	     310.08527	     388.76489
      29.76563	     315.26031	     394.94681	     315.26031	     394.94681
      30.00000	     315.73816	     395.65076	     315.73816	     395.65076
      30.23438	     315.08966	     393.26160	     315.08966	     393.26160
      30.46875	     313.46848	     393.31281	     313.46848	     393.31281
      30.70313	     308.81390	     389.09766	     308.81390	     389.09766
      30.93750	     315.14514	     393.14639	     315.14514	     393.14639
      31.17188	     308.34460	     386.91330	     308.34460	     386.91330
      31.40625	     309.71835	     390.47995	     309.71835	     390.47995
      31.64063	     318.65204	     400.33517	     318.65204	     400.33517
      31.87500	     312.99918	     390.44156	     312.99918	     390.44156
      32.10938	     314.86356	     393.64557	     314.86356	     393.64557
      32.34375	     309.64584	     386.67438	     309.64584	     386.67438
      32.57813	     317.19724	     396.73865	     317.19724	     396.73865
      32.81250	     312.14590	     393.01416	     312.14590	     393.01416
      33.04688	     309.88049	     391.12845	     309.88049	     391.12845
      33.28125	     313.56659	     395.56116	     313.56659	     395.56116
      33.51563	     312.66638	     394.09354	     312.66638	     394.09354
      33.75000	     314.56918	     395.68060	     314.56918	     395.68060
      33.98438	     314.13828	     394.58844	     314.13828	     394.58844
      34.21875	     316.08371	     396.99890	     316.08371	     396.99890
      34.45313	     309.56052	     389.49445	     309.56052	     389.49445
      34.68750	     316.07947	     395.98779	     316.07947	     395.98779
      34.92188	     316.91138	     395.31796	     316.91138	     395.31796
      35.15625	     314.44119	     396.74292	     314.44119	     396.74292
      35.39063	     315.63577	     396.43149	     315.63577	     396.43149
      35.62500	     312.19708	     391.61053	     312.19708	     391.61053
      35.85938	     310.41803	     390.68900	     310.41803	     390.68900
      36.09375	     312.48294	     388.46198	     312.48294	     388.46198
      36.32813	     314.73129	     394.92120	     314.73129	     394.92120
      36.56250	     311.80460	     390.59515	     311.80460	     390.59515
      36.79688	     315.40964	     393.40237	     315.40964	     393.40237
      37.03125	     308.97174	     387.71536	     308.97174	     387.71536
      37.26563	     313.31488	     394.92548	     313.31488	     394.92548
      37.50000	     311.74487	     387.23755	     311.74487	     387.23755
      37.73438	     309.70557	     391.81958	     309.70557	     391.81958
      37.96875	     312.29095	     391.75131	     312.29095	     391.75131
      38.20313	     308.13129	     387.47220	     308.13129	     387.47220
      38.43750	     314.65024	     394.36658	     314.65024	     394.36658
      38.67188	     311.84726	     389.66934	     311.84726	     389.66934
      38.90625	     312.30374	     392.08835	     312.30374	     392.08835
      39.14063	     314.82089	     392.59604	     314.82089	     392.59604
      39.37500	     312.06058	     388.66678	     312.06058	     388.66678
      39.60938	     311.78754	     392.55338	     311.78754	     392.55338
      39.84375	     317.58548	     396.29068	     317.58548	     396.29068
      40.07813	     312.20135	     390.95352	     312.20135	     390.95352
      40.31250	     315.76801	     396.85385	     315.76801	     396.85385
      40.54688	     313.45139	     391.21802	     313.45139	     391.21802
      40.78125	     313.06317	     392.96722	     313.06317	     392.96722
      41.01563	     311.73633	     393.67117	     311.73633	     393.67117
      41.25000	     316.07947	     392.68564	     316.07947	     392.68564
      41.48438	     313.59219	     392.54486	     313.59219	     392.54486
      41.71875	     317.08630	     399.26859	     317.08630	     399.26859
      41.95313	     314.54358	     392.89896	     314.54358	     392.89896
      42.18750	     317.15884	     396.71732	     317.15884	     396.71732
      42.42188	     311.91125	     394.73776	     311.91125	     394.73776
      42.65625	     314.96167	     394.84015	     314.96167	     394.84015
      42.89063	     311.03665	     390.46289	     311.03665	     390.46289
      43.12500	     315.42245	     393.18481	     315.42245	     393.18481
      43.35938	     316.30984	     395.04492	     316.30984	     395.04492
      43.59375	     315.23898	     394.12338	     315.23898	     394.12338
      43.82813	     310.05115	     389.61389	     310.05115	     389.61389
      44.06250	     315.14514	     392.81790	     315.14514	     392.81790
      44.29688	     314.90622	     396.15845	     314.90622	     396.15845
      44.53125	     312.29523	     389.41336	     312.29523	     389.41336
      44.76563	     318.16995	     397.73270	     318.16995	     397.73270
      45.00000	     316.01971	     396.42722	     316.01971	     396.42722
      45.23438	     311.29263	     390.77859	     311.29263	     390.77859
      45.46875	     318.75446	     398.63718	     318.75446	     398.63718
      45.70313	     307.80276	     388.34680	     307.80276	     388.34680
      45.93750	     311.13052	     391.20096	     311.13052	     391.20096
      46.17188	     307.71320	     388.61557	     307.71320	     388.61557
      46.40625	     310.76361	     390.26663	     310.76361	     390.26663
      46.64063	     316.89005	     397.21649	     316.89005	     397.21649
      46.87500	     312.89252	     396.62347	     312.89252	     396.62347
      47.10938	     314.26627	     393.86743	     314.26627	     393.86743
      47.34375	     311.13052	     389.46884	     311.13052	     389.46884
      47.57813	     317.65799	     394.82733	     317.65799	     394.82733
      47.81250	     318.25955	     395.90247	     318.25955	     395.90247
      48.04688	     316.27145	     397.02451	     316.27145	     397.02451
      48.28125	     310.08954	     390.22824	     310.08954	     390.22824
      48.51563	     315.34137	     394.56284	     315.34137	     394.56284
      48.75000	     311.29691	     387.44659	     311.29691	     387.44659
      48.98438	     317.91824	     398.16360	     317.91824	     398.16360
      49.21875	     321.04120	     400.81299	     321.04120	     400.81299
      49.45313	     318.80991	     396.96902	     318.80991	     396.96902
      49.68750	     316.89005	     398.57745	     316.89005	     398.57745
      49.92188	     317.47455	     397.21222	     317.47455	     397.21222
      50.15625	     314.26627	     392.59180	     314.26627	     392.59180
      50.39063	     318.42166	     398.66278	     318.42166	     398.66278
      50.62500	     317.95663	     397.95029	     317.95663	     397.95029
      50.85938	     313.92923	     392.77951	     313.92923	     392.77951
      51.09375	     316.11786	     395.22836	     316.11786	     395.22836
      51.32813	     314.82089	     392.94162	     314.82089	     392.94162
      51.56250	     310.48203	     389.61816	     310.48203	     389.61816
      51.79688	     311.65100	     390.32211	     311.65100	     390.32211
      52.03125	     309.37280	     388.60278	     309.37280	     388.60278
      52.26563	     320.96442	     400.50583	     320.96442	     400.50583
      52.50000	     315.86188	     393.29999	     315.86188	     393.29999
      52.73438	     316.28424	     395.56116	     316.28424	     395.56116
      52.96875	     309.89328	     389.58829	     309.89328	     389.58829
      53.20313	     314.44119	     391.70013	     314.44119	     391.70013
      53.43750	     309.20639	     386.94742	     309.20639	     386.94742
      53.67188	     311.88992	     389.53284	     311.88992	     389.53284
      53.90625	     311.50595	     391.82385	     311.50595	     391.82385
      54.14063	     318.68192	     398.23187	     318.68192	     398.23187
      54.37500	     311.27130	     386.41415	     311.27130	     386.41415
      54.60938	     315.84906	     396.90930	     315.84906	     396.90930
      54.84375	     311.77899	     392.77951	     311.77899	     392.77951
      55.07813	     308.67310	     387.17355	     308.67310	     387.17355
      55.31250	     312.88824	     393.71384	     312.88824	     393.71384
      55.54688	     315.90881	     397.81802	     315.90881	     397.81802
      55.78125	     317.79453	     396.27789	     317.79453	     396.27789
      56.01563	     314.15533	     394.96814	     314.15533	     394.96814
      56.25000	     310.67401	     388.90567	     310.67401	     388.90567
      56.48438	     309.71835	     390.27945	     309.71835	     390.27945
      56.71875	     316.03253	     396.04324	     316.03253	     396.04324
      56.95313	     312.78586	     391.00046	     312.78586	     391.00046
      57.18750	     315.34564	     395.86404	     315.34564	     395.86404
      57.42188	     311.63821	     393.89728	     311.63821	     393.89728
      57.65625	     313.87378	     393.11655	     313.87378	     393.11655
      57.89063	     311.25424	     391.07297	     311.25424	     391.07297
      58.12500	     306.55273	     385.62061	     306.55273	     385.62061
      58.35938	     309.94449	     392.04144	     309.94449	     392.04144
      58.59375	     312.57681	     392.67712	     312.57681	     392.67712
      58.82813	     315.91733	     394.62683	     315.91733	     394.62683
      59.06250	     311.56995	     390.51407	     311.56995	     390.51407
      59.29688	     317.56415	     397.64313	     317.56415	     397.64313
      59.53125	     314.56918	     395.45450	     314.56918	     395.45450

Monitor Diode	 452639.49
"StandardDeviation"
  3.12500E-006	  8.53750E-003
  6.25000E-006	  8.53761E-003
  9.37500E-006	  8.53756E-003
  1.25000E-005	  8.53761E-003
  1.56250E-005	  8.53762E-003
  1.87500E-005	  8.53762E-003
  2.18750E-005	  8.53761E-003
  2.50000E-005	  8.53758E-003
  2.81250E-005	  8.49069E-003
  3.12500E-005	  8.53385E-003
  3.43750E-005	  8.51284E-003
  3.75000E-005	  8.53474E-003
  4.06250E-005	  8.53761E-003
  4.37500E-005	  8.53752E-003
  4.68750E-005	  8.53060E-003
  5.00000E-005	  6.03234E-003
  5.62500E-005	  6.00975E-003
  6.25000E-005	  6.04229E-003
  6.87500E-005	  6.02196E-003
  7.50000E-005	  6.01845E-003
  8.12500E-005	  6.04298E-003
  8.75000E-005	  6.01899E-003
  9.37500E-005	  6.01950E-003
  1.00000E-004	  4.26644E-003
  1.12500E-004	  4.27060E-003
  1.25000E-004	  4.27318E-003
  1.37500E-004	  4.26603E-003
  1.50000E-004	  4.27072E-003
  1.62500E-004	  4.26404E-003
  1.75000E-004	  4.27111E-003
  1.87500E-004	  4.27506E-003
  2.00000E-004	  3.04440E-003
  2.25000E-004	  3.04038E-003
  2.50000E-004	  3.03795E-003
  2.75000E-004	  3.03364E-003
  3.00000E-004	  3.03698E-003
  3.25000E-004	  3.03335E-003
  3.50000E-004	  3.03390E-003
  3.75000E-004	  3.03532E-003
  4.00000E-004	  2.17012E-003
  4.50000E-004	  2.17116E-003
  5.00000E-004	  2.17015E-003
  5.50000E-004	  2.16861E-003
  6.00000E-004	  2.16951E-003
  6.50000E-004	  2.16671E-003
  7.00000E-004	  2.16659E-003
  7.50000E-004	  2.16692E-003
  8.00000E-004	  1.56589E-003
  9.00000E-004	  1.56530E-003
  1.00000E-003	  1.56384E-003
  1.10000E-003	  1.56424E-003
  1.20000E-003	  1.56221E-003
  1.30000E-003	  1.56120E-003
  1.40000E-003	  1.56123E-003
  1.50000E-003	  1.56020E-003
  1.60000E-003	  1.14977E-003
  1.80000E-003	  1.14791E-003
  2.00000E-003	  1.14698E-003
  2.20000E-003	  1.14540E-003
  2.40000E-003	  1.14395E-003
  2.60000E-003	  1.14300E-003
  2.80000E-003	  1.14155E-003
  3.00000E-003	  1.14042E-003
  3.20000E-003	  8.66762E-004
  3.60000E-003	  8.64703E-004
  4.00000E-003	  8.62396E-004
  4.40000E-003	  8.60776E-004
  4.80000E-003	  8.58715E-004
  5.20000E-003	  8.56856E-004
  5.60000E-003	  8.54902E-004
  6.00000E-003	  8.52932E-004
  6.40000E-003	  6.76818E-004
  7.20000E-003	  6.73136E-004
  8.00000E-003	  6.69795E-004
  8.80000E-003	  6.66541E-004
  9.60000E-003	  6.63274E-004
  1.04000E-002	  6.60125E-004
  1.12000E-002	  6.57000E-004
  1.20000E-002	  6.54020E-004
  1.28000E-002	  5.44627E-004
  1.44000E-002	  5.38454E-004
  1.60000E-002	  5.33058E-004
  1.76000E-002	  5.27791E-004
  1.92000E-002	  5.22792E-004
  2.08000E-002	  5.17930E-004
  2.24000E-002	  5.13367E-004
  2.40000E-002	  5.08936E-004
  2.56000E-002	  4.41187E-004
  2.88000E-002	  4.32728E-004
  3.20000E-002	  4.25453E-004
  3.52000E-002	  4.18827E-004
  3.84000E-002	  4.12810E-004
  4.16000E-002	  4.07343E-004
  4.48000E-002	  4.02544E-004
  4.80000E-002	  3.98243E-004
  5.12000E-002	  3.55738E-004
  5.76000E-002	  3.48941E-004
  6.40000E-002	  3.43756E-004
  7.04000E-002	  3.39556E-004
  7.68000E-002	  3.36161E-004
  8.32000E-002	  3.33456E-004
  8.96000E-002	  3.31330E-004
  9.60000E-002	  3.29588E-004
  1.02400E-001	  3.01634E-004
  1.15200E-001	  2.99779E-004
  1.28000E-001	  2.98936E-004
  1.40800E-001	  2.98306E-004
  1.53600E-001	  2.97900E-004
  1.66400E-001	  2.97656E-004
  1.79200E-001	  2.97036E-004
  1.92000E-001	  2.96506E-004
  2.04800E-001	  2.69634E-004
  2.30400E-001	  2.69634E-004
  2.56000E-001	  2.69634E-004
  2.81600E-001	  2.69634E-004
  3.07200E-001	  2.69634E-004
  3.32800E-001	  2.69634E-004
  3.58400E-001	  2.69634E-004
  3.84000E-001	  2.69634E-004
  4.09600E-001	  2.36921E-004
  4.60800E-001	  2.36921E-004
  5.12000E-001	  2.36921E-004
  5.63200E-001	  2.36921E-004
  6.14400E-001	  2.36921E-004
  6.65600E-001	  2.36921E-004
  7.16800E-001	  2.36921E-004
  7.68000E-001	  2.36921E-004
  8.19200E-001	  2.03643E-004
  9.21600E-001	  2.03643E-004
  1.02400E+000	  2.03643E-004
  1.12640E+000	  2.03643E-004
  1.22880E+000	  2.03643E-004
  1.33120E+000	  2.03643E-004
  1.43360E+000	  2.03643E-004
  1.53600E+000	  2.03643E-004
  1.63840E+000	  1.60994E-004
  1.84320E+000	  1.60994E-004
  2.04800E+000	  1.60994E-004
  2.25280E+000	  1.60994E-004
  2.45760E+000	  1.60994E-004
  2.66240E+000	  1.60994E-004
  2.86720E+000	  1.60994E-004
  3.07200E+000	  1.60994E-004
  3.27680E+000	  1.20862E-004
  3.68640E+000	  1.20862E-004
  4.09600E+000	  1.20862E-004
  4.50560E+000	  1.20862E-004
  4.91520E+000	  1.20862E-004
  5.32480E+000	  1.20862E-004
  5.73440E+000	  1.20862E-004
  6.14400E+000	  1.20862E-004
  6.55360E+000	  8.80570E-005
  7.37280E+000	  8.80570E-005
  8.19200E+000	  8.80570E-005
  9.01120E+000	  8.80570E-005
  9.83040E+000	  8.80570E-005
  1.06496E+001	  8.80570E-005
  1.14688E+001	  8.80570E-005
  1.22880E+001	  8.80570E-005
  1.31072E+001	  6.31835E-005
  1.47456E+001	  6.31835E-005
  1.63840E+001	  6.31835E-005
  1.80224E+001	  6.31835E-005
  1.96608E+001	  6.31835E-005
  2.12992E+001	  6.31835E-005
  2.29376E+001	  6.31835E-005
  2.45760E+001	  6.31835E-005
  2.62144E+001	  4.50020E-005
  2.94912E+001	  4.50020E-005
  3.27680E+001	  4.50020E-005
  3.60448E+001	  4.50020E-005
  3.93216E+001	  4.50020E-005
  4.25984E+001	  4.50020E-005
  4.58752E+001	  4.50020E-005
  4.91520E+001	  4.50020E-005
  5.24288E+001	  3.19360E-005
  5.89824E+001	  3.19360E-005
  6.55360E+001	  3.19360E-005
  7.20896E+001	  3.19360E-005
  7.86432E+001	  3.19360E-005
  8.51968E+001	  3.19360E-005
  9.17504E+001	  3.19360E-005
  9.83040E+001	  3.19360E-005
  1.04858E+002	  2.26227E-005
  1.17965E+002	  2.26227E-005
  1.31072E+002	  2.26227E-005
  1.44179E+002	  2.26227E-005
  1.57286E+002	  2.26227E-005
  1.70394E+002	  2.26227E-005
  1.83501E+002	  2.26227E-005
  1.96608E+002	  2.26227E-005
  2.09715E+002	  1.60110E-005
  2.35930E+002	  1.60110E-005
  2.62144E+002	  1.60110E-005
  2.88358E+002	  1.60110E-005
  3.14573E+002	  1.60110E-005
  3.40787E+002	  1.60110E-005
  3.67002E+002	  1.60110E-005
  3.93216E+002	  1.60110E-005
  4.19430E+002	  1.13266E-005
  4.71859E+002	  1.13266E-005
  5.24288E+002	  1.13266E-005
  5.76717E+002	  1.13266E-005
  6.29146E+002	  1.13266E-005
  6.81574E+002	  1.13266E-005
  7.34003E+002	  1.13266E-005
  7.86432E+002	  1.13266E-005
  8.38861E+002	  8.01088E-006
  9.43718E+002	  8.01088E-006
  1.04858E+003	  8.01088E-006
  1.15343E+003	  8.01088E-006
  1.25829E+003	  8.01088E-006
  1.36315E+003	  8.01088E-006
  1.46801E+003	  8.01088E-006
  1.57286E+003	  8.01088E-006
  1.67772E+003	  5.66518E-006
  1.88744E+003	  5.66518E-006
  2.09715E+003	  5.66518E-006
  2.30687E+003	  5.66518E-006
  2.51658E+003	  5.66518E-006
  2.72630E+003	  5.66518E-006
  2.93601E+003	  5.66518E-006
  3.14573E+003	  5.66518E-006
  3.35544E+003	  4.00611E-006
  3.77487E+003	  4.00611E-006
  4.19430E+003	  4.00611E-006
  4.61373E+003	  4.00611E-006
  5.03317E+003	  4.00611E-006
  5.45260E+003	  4.00611E-006
  5.87203E+003	  4.00611E-006
  6.29146E+003	  4.00611E-006
  6.71089E+003	  2.83283E-006
  7.54975E+003	  2.83283E-006
  8.38861E+003	  2.83283E-006
  9.22747E+003	  2.83283E-006
  1.00663E+004	  2.83283E-006
  1.09052E+004	  2.83283E-006
  1.17441E+004	  2.83283E-006
