ALV-7004 or ALV-7004/FAST Data
Date :	"3/28/2010"
Time :	"12:27:08 PM"
Samplename : 	"BSA 15 g/l in 8.3 mM YCl3"
SampMemo(0) : 	""
SampMemo(1) : 	""
SampMemo(2) : 	""
SampMemo(3) : 	""
SampMemo(4) : 	""
SampMemo(5) : 	""
SampMemo(6) : 	""
SampMemo(7) : 	""
SampMemo(8) : 	""
SampMemo(9) : 	""
Temperature [K] :	     295.64187
Viscosity [cp]  :	       0.94360
Refractive Index:	       1.33200
Wavelength [nm] :	     632.80000
Angle [°]       :	      90.00000
Duration [s]    :	        60
Runs            :	         1
Mode            :	"C-CH0/1+1/0"
MeanCR0 [kHz]   :	     297.61200
MeanCR1 [kHz]   :	     372.70900
MeanCR2 [kHz]   :	       0.00000
MeanCR3 [kHz]   :	       0.00000

"Correlation"
  3.12500E-006	  6.83480E-001	  6.80161E-001	 -2.00000E+000	 -2.00000E+000
  6.25000E-006	  6.52577E-001	  6.38652E-001	 -2.00000E+000	 -2.00000E+000
  9.37500E-006	  6.51759E-001	  6.58132E-001	 -2.00000E+000	 -2.00000E+000
  1.25000E-005	  6.44328E-001	  6.38027E-001	 -2.00000E+000	 -2.00000E+000
  1.56250E-005	  6.88506E-001	  6.63182E-001	 -2.00000E+000	 -2.00000E+000
  1.87500E-005	  6.82614E-001	  6.81989E-001	 -2.00000E+000	 -2.00000E+000
  2.18750E-005	  6.55223E-001	  6.61307E-001	 -2.00000E+000	 -2.00000E+000
  2.50000E-005	  6.79800E-001	  6.91031E-001	 -2.00000E+000	 -2.00000E+000
  2.81250E-005	  6.49114E-001	  6.46348E-001	 -2.00000E+000	 -2.00000E+000
  3.12500E-005	  6.71287E-001	  6.75351E-001	 -2.00000E+000	 -2.00000E+000
  3.43750E-005	  6.56184E-001	  6.63471E-001	 -2.00000E+000	 -1.99988E+000
  3.75000E-005	  6.69291E-001	  6.47743E-001	 -2.00000E+000	 -2.00000E+000
  4.06250E-005	  6.56184E-001	  6.65058E-001	 -2.00000E+000	  8.63012E-001
  4.37500E-005	  6.72585E-001	  6.78093E-001	 -2.00000E+000	  1.04513E+000
  4.68750E-005	  6.87424E-001	  6.70493E-001	 -2.00000E+000	 -6.05202E-001
  5.00000E-005	  6.77420E-001	  6.72513E-001	 -2.00000E+000	  1.78303E+000
  5.62500E-005	  6.68004E-001	  6.57820E-001	 -2.00000E+000	  8.83153E-001
  6.25000E-005	  6.70662E-001	  6.65227E-001	 -2.00000E+000	  9.03251E-001
  6.87500E-005	  6.61150E-001	  6.66405E-001	 -1.94623E+000	  1.02389E+000
  7.50000E-005	  6.60814E-001	  6.58805E-001	  1.64350E+000	  7.09515E-001
  8.12500E-005	  6.83684E-001	  6.75712E-001	  9.43546E-001	  7.52637E-001
  8.75000E-005	  6.65984E-001	  6.68906E-001	  9.18394E-001	  7.26831E-001
  9.37500E-005	  6.58288E-001	  6.65852E-001	  8.63540E-001	  7.21034E-001
  1.00000E-004	  6.62942E-001	  6.65563E-001	  7.72087E-001	  6.90775E-001
  1.12500E-004	  6.64241E-001	  6.63158E-001	  7.75895E-001	  7.10811E-001
  1.25000E-004	  6.69603E-001	  6.73018E-001	  7.28662E-001	  7.10887E-001
  1.37500E-004	  6.67824E-001	  6.66766E-001	  6.75750E-001	  7.03274E-001
  1.50000E-004	  6.62539E-001	  6.59623E-001	  6.77362E-001	  6.96449E-001
  1.62500E-004	  6.58132E-001	  6.63447E-001	  6.55358E-001	  6.95951E-001
  1.75000E-004	  6.66104E-001	  6.66285E-001	  6.43729E-001	  6.88510E-001
  1.87500E-004	  6.57657E-001	  6.63375E-001	  6.69573E-001	  7.03516E-001
  2.00000E-004	  6.60477E-001	  6.63705E-001	  6.55926E-001	  6.95286E-001
  2.25000E-004	  6.60239E-001	  6.58547E-001	  6.61238E-001	  6.87284E-001
  2.50000E-004	  6.63546E-001	  6.66964E-001	  6.63730E-001	  6.88387E-001
  2.75000E-004	  6.61499E-001	  6.55204E-001	  6.63594E-001	  6.90018E-001
  3.00000E-004	  6.66420E-001	  6.68774E-001	  6.59045E-001	  6.83796E-001
  3.25000E-004	  6.59304E-001	  6.53599E-001	  6.63602E-001	  6.85467E-001
  3.50000E-004	  6.59611E-001	  6.56425E-001	  6.65546E-001	  6.83590E-001
  3.75000E-004	  6.59010E-001	  6.57453E-001	  6.55785E-001	  6.76117E-001
  4.00000E-004	  6.60310E-001	  6.59344E-001	  6.58862E-001	  6.79549E-001
  4.50000E-004	  6.57964E-001	  6.54561E-001	  6.61986E-001	  6.76397E-001
  5.00000E-004	  6.53785E-001	  6.54182E-001	  6.67911E-001	  6.82301E-001
  5.50000E-004	  6.56497E-001	  6.53758E-001	  6.58982E-001	  6.75687E-001
  6.00000E-004	  6.55733E-001	  6.56410E-001	  6.56204E-001	  6.77552E-001
  6.50000E-004	  6.55018E-001	  6.57281E-001	  6.61008E-001	  6.78975E-001
  7.00000E-004	  6.53930E-001	  6.51197E-001	  6.64295E-001	  6.72973E-001
  7.50000E-004	  6.53996E-001	  6.52078E-001	  6.55844E-001	  6.67122E-001
  8.00000E-004	  6.50518E-001	  6.49957E-001	  6.58500E-001	  6.70046E-001
  9.00000E-004	  6.50531E-001	  6.50082E-001	  6.54040E-001	  6.65877E-001
  1.00000E-003	  6.49921E-001	  6.51543E-001	  6.52412E-001	  6.65255E-001
  1.10000E-003	  6.46226E-001	  6.46132E-001	  6.54073E-001	  6.62521E-001
  1.20000E-003	  6.40725E-001	  6.40567E-001	  6.46605E-001	  6.61695E-001
  1.30000E-003	  6.42603E-001	  6.41785E-001	  6.44302E-001	  6.56555E-001
  1.40000E-003	  6.38267E-001	  6.37175E-001	  6.46846E-001	  6.52660E-001
  1.50000E-003	  6.38737E-001	  6.38078E-001	  6.43064E-001	  6.54996E-001
  1.60000E-003	  6.37056E-001	  6.37448E-001	  6.43006E-001	  6.53041E-001
  1.80000E-003	  6.32705E-001	  6.30716E-001	  6.38154E-001	  6.47465E-001
  2.00000E-003	  6.26208E-001	  6.26159E-001	  6.31290E-001	  6.44382E-001
  2.20000E-003	  6.22898E-001	  6.24704E-001	  6.28372E-001	  6.37460E-001
  2.40000E-003	  6.20975E-001	  6.20531E-001	  6.26052E-001	  6.36250E-001
  2.60000E-003	  6.15272E-001	  6.16608E-001	  6.21365E-001	  6.33057E-001
  2.80000E-003	  6.12592E-001	  6.11730E-001	  6.18047E-001	  6.25107E-001
  3.00000E-003	  6.10297E-001	  6.10115E-001	  6.12836E-001	  6.23758E-001
  3.20000E-003	  6.05791E-001	  6.06051E-001	  6.09546E-001	  6.19926E-001
  3.60000E-003	  5.98278E-001	  5.96679E-001	  6.02918E-001	  6.12960E-001
  4.00000E-003	  5.90868E-001	  5.91169E-001	  5.95766E-001	  6.04402E-001
  4.40000E-003	  5.82760E-001	  5.81677E-001	  5.91201E-001	  5.97499E-001
  4.80000E-003	  5.76343E-001	  5.75749E-001	  5.81895E-001	  5.90319E-001
  5.20000E-003	  5.69653E-001	  5.70395E-001	  5.76948E-001	  5.84970E-001
  5.60000E-003	  5.63706E-001	  5.64073E-001	  5.68621E-001	  5.77060E-001
  6.00000E-003	  5.55879E-001	  5.55667E-001	  5.61715E-001	  5.68806E-001
  6.40000E-003	  5.50041E-001	  5.49503E-001	  5.54665E-001	  5.61358E-001
  7.20000E-003	  5.35839E-001	  5.34502E-001	  5.41026E-001	  5.48263E-001
  8.00000E-003	  5.22926E-001	  5.23310E-001	  5.29444E-001	  5.35519E-001
  8.80000E-003	  5.10721E-001	  5.10862E-001	  5.15961E-001	  5.23362E-001
  9.60000E-003	  4.98577E-001	  4.98916E-001	  5.03235E-001	  5.11019E-001
  1.04000E-002	  4.86437E-001	  4.87512E-001	  4.92375E-001	  4.98296E-001
  1.12000E-002	  4.74658E-001	  4.74776E-001	  4.80873E-001	  4.86847E-001
  1.20000E-002	  4.64242E-001	  4.64825E-001	  4.68345E-001	  4.74428E-001
  1.28000E-002	  4.52646E-001	  4.52853E-001	  4.58245E-001	  4.62679E-001
  1.44000E-002	  4.31590E-001	  4.31466E-001	  4.35803E-001	  4.41038E-001
  1.60000E-002	  4.10802E-001	  4.10127E-001	  4.15596E-001	  4.21060E-001
  1.76000E-002	  3.91363E-001	  3.91346E-001	  3.95915E-001	  4.00969E-001
  1.92000E-002	  3.73374E-001	  3.73761E-001	  3.77031E-001	  3.82373E-001
  2.08000E-002	  3.55541E-001	  3.54824E-001	  3.60379E-001	  3.64539E-001
  2.24000E-002	  3.38431E-001	  3.38170E-001	  3.43206E-001	  3.47065E-001
  2.40000E-002	  3.23425E-001	  3.23033E-001	  3.25943E-001	  3.30917E-001
  2.56000E-002	  3.08093E-001	  3.07841E-001	  3.11313E-001	  3.15461E-001
  2.88000E-002	  2.79869E-001	  2.79679E-001	  2.83530E-001	  2.87199E-001
  3.20000E-002	  2.54670E-001	  2.54399E-001	  2.57609E-001	  2.61480E-001
  3.52000E-002	  2.31840E-001	  2.31779E-001	  2.34232E-001	  2.37342E-001
  3.84000E-002	  2.10908E-001	  2.11336E-001	  2.12919E-001	  2.15807E-001
  4.16000E-002	  1.91930E-001	  1.91854E-001	  1.93521E-001	  1.96631E-001
  4.48000E-002	  1.74172E-001	  1.74783E-001	  1.76107E-001	  1.77882E-001
  4.80000E-002	  1.58567E-001	  1.58970E-001	  1.59820E-001	  1.62652E-001
  5.12000E-002	  1.44613E-001	  1.44928E-001	  1.46596E-001	  1.48513E-001
  5.76000E-002	  1.19776E-001	  1.20175E-001	  1.21444E-001	  1.22897E-001
  6.40000E-002	  9.95271E-002	  9.95233E-002	  1.00272E-001	  1.01574E-001
  7.04000E-002	  8.23898E-002	  8.27925E-002	  8.33063E-002	  8.49665E-002
  7.68000E-002	  6.86131E-002	  6.89153E-002	  6.89900E-002	  7.03023E-002
  8.32000E-002	  5.72650E-002	  5.76969E-002	  5.78071E-002	  5.87954E-002
  8.96000E-002	  4.72294E-002	  4.78675E-002	  4.74072E-002	  4.88170E-002
  9.60000E-002	  3.96692E-002	  4.00150E-002	  4.03357E-002	  4.05082E-002
  1.02400E-001	  3.32868E-002	  3.36337E-002	  3.39708E-002	  3.41920E-002
  1.15200E-001	  2.33295E-002	  2.37087E-002	  2.34714E-002	  2.36570E-002
  1.28000E-001	  1.62144E-002	  1.66807E-002	  1.59951E-002	  1.68043E-002
  1.40800E-001	  1.12521E-002	  1.17208E-002	  1.13923E-002	  1.15028E-002
  1.53600E-001	  7.87769E-003	  8.17709E-003	  8.49949E-003	  7.66543E-003
  1.66400E-001	  5.39851E-003	  5.67515E-003	  5.76727E-003	  5.28335E-003
  1.79200E-001	  3.66207E-003	  4.31101E-003	  4.04428E-003	  3.70975E-003
  1.92000E-001	  2.64833E-003	  2.96007E-003	  3.05196E-003	  2.92400E-003
  2.04800E-001	  1.87376E-003	  2.05866E-003	  1.91727E-003	  2.10954E-003
  2.30400E-001	  9.01616E-004	  1.08803E-003	  9.32355E-004	  1.21098E-003
  2.56000E-001	  7.20614E-004	  9.26924E-004	  9.40085E-004	  8.98708E-004
  2.81600E-001	  7.31717E-004	  9.51418E-004	  6.45720E-004	  5.11762E-004
  3.07200E-001	  2.46718E-004	  3.72466E-004	  4.89131E-004	 -4.03971E-005
  3.32800E-001	  1.11611E-004	  3.90117E-004	  8.02350E-005	  1.98244E-004
  3.58400E-001	  3.95055E-004	  8.05131E-004	  2.83716E-004	  4.06856E-004
  3.84000E-001	  2.98642E-004	  3.08782E-004	  1.85500E-004	  3.78538E-004
  4.09600E-001	  2.37779E-004	  8.40764E-005	  3.81258E-004	  1.67954E-004
  4.60800E-001	  7.74152E-004	  8.10749E-004	  8.47036E-004	  5.28586E-004
  5.12000E-001	  5.29665E-004	  5.41040E-004	  5.84457E-004	  4.80848E-004
  5.63200E-001	  6.12239E-005	  1.07062E-004	 -8.34910E-005	  1.52152E-004
  6.14400E-001	  4.32292E-005	  1.74396E-004	 -9.91992E-005	  1.84685E-004
  6.65600E-001	 -1.20241E-004	  1.52485E-004	 -4.69290E-004	  1.99345E-004
  7.16800E-001	 -2.60233E-004	 -2.05473E-004	 -4.78089E-004	 -2.58247E-004
  7.68000E-001	 -2.92062E-004	 -2.55620E-004	 -9.54704E-005	 -5.92891E-004
  8.19200E-001	 -1.16539E-004	 -8.92161E-005	 -4.47427E-005	 -4.31538E-004
  9.21600E-001	  1.52879E-004	  2.13334E-004	  2.55779E-004	  6.49914E-005
  1.02400E+000	  5.34321E-007	 -7.96228E-005	  1.92669E-004	 -9.32568E-005
  1.12640E+000	 -2.85661E-004	 -1.63591E-004	 -3.66214E-004	 -1.87485E-004
  1.22880E+000	  3.72159E-005	  9.16060E-005	 -2.64239E-004	  2.62252E-004
  1.33120E+000	  2.37489E-005	 -8.45694E-005	 -1.56912E-005	  3.31625E-004
  1.43360E+000	  4.89264E-004	  5.65879E-004	  2.73994E-004	  6.32244E-004
  1.53600E+000	  5.48940E-005	 -1.46250E-004	 -8.83575E-005	  3.78876E-004
  1.63840E+000	 -4.28500E-004	 -5.01766E-004	 -5.24498E-004	 -3.23544E-004
  1.84320E+000	  1.81435E-004	  1.23347E-004	  1.70054E-004	  1.80764E-004
  2.04800E+000	 -6.59052E-005	 -1.99159E-004	 -1.53061E-004	  9.14774E-005
  2.25280E+000	  4.24644E-005	  1.95866E-004	  2.69337E-004	 -2.22216E-004
  2.45760E+000	  1.64157E-004	  9.06630E-005	  2.78185E-004	 -1.50232E-005
  2.66240E+000	 -1.22240E-004	  5.66085E-006	 -1.46668E-004	 -1.90795E-005
  2.86720E+000	 -3.07674E-004	 -3.73550E-004	 -3.77134E-004	 -2.91504E-004
  3.07200E+000	  1.65014E-004	  2.75084E-004	  1.32418E-005	  3.49555E-004
  3.27680E+000	  2.30563E-004	  2.23692E-004	  1.62549E-004	  2.09222E-004
  3.68640E+000	  1.13676E-004	  1.05586E-004	  2.58560E-004	 -1.33371E-005
  4.09600E+000	  6.12779E-005	  9.19402E-005	  1.80482E-004	  2.97557E-005
  4.50560E+000	  1.92140E-004	  2.32826E-004	  5.60830E-005	  3.60077E-004
  4.91520E+000	 -1.75069E-004	 -2.17667E-004	 -1.47519E-004	 -1.04807E-004
  5.32480E+000	  1.86862E-004	  1.51667E-004	  1.32544E-004	  3.57702E-004
  5.73440E+000	 -4.74937E-005	  4.50736E-006	 -2.19812E-004	  2.80621E-005
  6.14400E+000	  7.85895E-005	  1.76669E-004	  4.79147E-005	  7.09311E-005
  6.55360E+000	  2.87894E-004	  3.32733E-004	  3.41884E-004	  2.67867E-004
  7.37280E+000	  3.13728E-005	  2.74926E-006	  1.40003E-004	 -1.42979E-004
  8.19200E+000	  3.77584E-005	  1.04146E-004	  2.84945E-005	  1.38497E-005
  9.01120E+000	  3.13758E-004	  3.53580E-004	  3.57248E-004	  2.83857E-004
  9.83040E+000	  4.49386E-005	  5.61975E-005	 -8.98658E-006	  4.45322E-005
  1.06496E+001	  7.82395E-005	  3.54613E-005	  9.45062E-005	  2.67517E-005
  1.14688E+001	  1.13078E-004	  1.58505E-004	  1.90464E-004	  3.33554E-005
  1.22880E+001	  1.11287E-005	  5.50319E-005	  2.38146E-006	 -3.25450E-006
  1.31072E+001	  4.73541E-005	  8.62330E-005	  2.96809E-005	  1.06624E-004
  1.47456E+001	  8.65922E-005	  8.01726E-005	  1.02644E-004	  7.20100E-005
  1.63840E+001	  5.16073E-005	  5.90558E-005	  5.37831E-005	  2.58670E-005
  1.80224E+001	 -6.71215E-005	 -3.15819E-005	 -9.31028E-005	 -1.00338E-004
  1.96608E+001	  9.50420E-005	  1.80830E-004	  7.88729E-005	  1.16753E-004
  2.12992E+001	 -3.71835E-005	 -1.02259E-004	  2.90661E-005	 -1.25242E-004
  2.29376E+001	  4.64925E-005	  1.70218E-005	  3.89120E-005	  5.32939E-005
  2.45760E+001	  4.69738E-005	  4.88984E-005	 -5.35324E-005	  1.03549E-004
  2.62144E+001	  4.55400E-005	  8.58077E-005	  2.64867E-005	  6.85894E-005
  2.94912E+001	 -3.66621E-006	  1.80689E-005	 -3.04909E-005	  4.42504E-005
  3.27680E+001	  6.77149E-006	 -5.26823E-005	  5.63035E-007	  4.72907E-005
  3.60448E+001	 -5.61875E-005	 -5.90058E-005	 -4.13966E-005	 -6.79821E-005
  3.93216E+001	  1.29890E-004	  1.16355E-004	  1.29357E-004	  1.59342E-004
  4.25984E+001	  6.13252E-005	  8.51268E-005	  7.42414E-005	  5.18876E-005
  4.58752E+001	 -3.04966E-005	 -4.57761E-005	 -1.17179E-005	 -3.15481E-005
  4.91520E+001	  8.34379E-006	 -3.32263E-005	  7.11411E-005	 -4.08901E-005
  5.24288E+001	  6.84221E-005	  3.63564E-005	  1.13761E-004	  6.38077E-005
  5.89824E+001	  1.97409E-005	  2.33182E-005	  1.79217E-005	  3.24763E-005
  6.55360E+001	 -5.23355E-005	 -5.86235E-005	 -4.44830E-005	 -7.62557E-005
  7.20896E+001	  7.51615E-005	  4.13864E-005	  9.64454E-005	  5.44837E-005
  7.86432E+001	 -8.66562E-005	 -1.29655E-004	 -1.08238E-004	 -8.20494E-005
  8.51968E+001	  2.18418E-005	 -8.12677E-007	  4.65395E-005	  4.92974E-006
  9.17504E+001	  8.66428E-006	 -1.78518E-005	  4.29981E-005	 -2.27077E-005
  9.83040E+001	  4.20732E-006	 -2.03736E-005	  1.38296E-005	 -1.19871E-005
  1.04858E+002	 -1.43354E-005	 -2.41736E-005	  1.62817E-005	 -4.33300E-005
  1.17965E+002	 -7.66612E-005	 -8.42486E-005	 -9.35007E-005	 -6.76086E-005
  1.31072E+002	  2.51306E-005	  5.36898E-006	  4.50229E-005	  8.77738E-006
  1.44179E+002	  5.50852E-005	  5.93817E-005	  3.71835E-005	  7.55946E-005
  1.57286E+002	 -1.01957E-005	 -2.69575E-005	  1.78828E-005	 -3.99366E-005
  1.70394E+002	 -2.38090E-006	 -5.03644E-006	  2.48970E-005	 -3.61984E-005
  1.83501E+002	  2.48050E-005	  3.02839E-006	  2.62720E-005	  2.82105E-005
  1.96608E+002	 -2.85899E-005	 -2.18321E-005	 -4.06135E-005	 -2.46361E-005
  2.09715E+002	 -9.07331E-006	  9.27896E-006	 -6.58977E-006	 -1.82001E-005
  2.35930E+002	 -4.82646E-005	 -4.43060E-005	 -4.68852E-005	 -6.33117E-005
  2.62144E+002	  4.95935E-005	  6.15046E-005	  5.83085E-005	  4.13763E-005
  2.88358E+002	 -2.07520E-005	 -1.39533E-005	 -1.09656E-005	 -3.01842E-005
  3.14573E+002	 -5.50333E-007	  5.38710E-006	  2.30239E-005	 -1.14486E-005
  3.40787E+002	  4.60787E-006	  1.55388E-005	 -4.61387E-006	 -8.26389E-007
  3.67002E+002	 -1.58533E-005	  4.90164E-006	 -9.77644E-006	 -2.11376E-005
  3.93216E+002	  2.92238E-006	  1.16735E-005	  2.06593E-005	 -1.02966E-005
  4.19430E+002	  8.20701E-006	  2.64219E-005	  1.68380E-006	  2.12444E-005
  4.71859E+002	 -1.38592E-005	 -1.55106E-005	 -1.10422E-005	 -2.16358E-005
  5.24288E+002	 -5.87463E-006	  1.82690E-006	 -1.32645E-005	  1.84026E-006
  5.76717E+002	  2.31727E-005	  2.79504E-005	  1.31441E-005	  2.99191E-005
  6.29146E+002	 -1.51045E-005	 -2.63547E-005	 -2.87742E-005	 -9.38791E-006
  6.81574E+002	 -3.37590E-005	 -3.29124E-005	 -3.28624E-005	 -3.58232E-005
  7.34003E+002	 -7.34898E-006	  2.80375E-007	 -3.10312E-006	 -8.71328E-006
  7.86432E+002	 -2.84023E-005	 -8.82157E-006	 -2.31202E-005	 -3.93258E-005
  8.38861E+002	 -6.30371E-006	 -1.40033E-006	 -1.36976E-006	 -1.37680E-005
  9.43718E+002	 -1.33246E-005	 -1.29335E-005	 -7.77781E-006	 -2.32292E-005
  1.04858E+003	 -3.14086E-005	 -3.89930E-005	 -2.69136E-005	 -3.84802E-005
  1.15343E+003	 -2.22508E-005	 -1.19077E-005	 -2.11267E-005	 -1.99991E-005
  1.25829E+003	  1.69956E-005	  1.31746E-005	  2.11098E-005	  1.09880E-005
  1.36315E+003	 -1.11265E-005	 -1.27168E-005	 -1.46252E-005	 -1.82985E-005
  1.46801E+003	 -5.59112E-006	 -9.83317E-007	 -1.89043E-005	  2.97515E-006
  1.57286E+003	  5.41799E-006	  9.22526E-006	  9.29885E-006	  3.30478E-006
  1.67772E+003	  1.28170E-005	  1.62178E-005	  1.48608E-005	  1.53700E-005
  1.88744E+003	 -1.16646E-006	 -1.09101E-006	  3.54968E-006	 -6.41857E-006
  2.09715E+003	  1.02122E-006	  8.08656E-008	 -1.03566E-007	  6.58350E-006
  2.30687E+003	  1.04434E-005	  4.80332E-006	  8.17388E-006	  1.42565E-005
  2.51658E+003	 -1.29737E-005	 -1.47044E-005	 -1.41787E-005	 -9.46232E-006
  2.72630E+003	  1.11572E-005	  1.11387E-005	  4.53621E-006	  1.90955E-005
  2.93601E+003	  2.56992E-006	  1.10689E-006	 -3.86445E-007	 -1.87370E-006
  3.14573E+003	 -4.03794E-006	 -5.91220E-006	 -6.41506E-006	 -1.46612E-006
  3.35544E+003	 -4.39363E-006	 -4.85432E-006	 -1.69838E-006	 -6.14745E-006
  3.77487E+003	  1.93051E-006	  1.55909E-006	  1.46938E-006	  2.56834E-006
  4.19430E+003	 -1.13335E-007	 -7.42693E-009	 -2.97561E-006	  7.53745E-006
  4.61373E+003	 -4.49625E-006	 -2.49956E-006	 -4.53389E-006	 -6.65834E-006
  5.03317E+003	  7.45518E-006	  9.56288E-006	  2.40272E-006	  1.11880E-005
  5.45260E+003	  1.53059E-007	 -3.09248E-006	  2.76162E-006	 -1.01714E-006
  5.87203E+003	 -1.53359E-005	 -1.49626E-005	 -1.85591E-005	 -1.28034E-005
  6.29146E+003	 -8.81962E-006	 -1.17080E-005	 -1.20070E-005	 -7.39436E-006
  6.71089E+003	 -9.49400E-006	 -6.33801E-006	 -1.27605E-005	 -8.07672E-006
  7.54975E+003	  2.52281E-007	  3.49876E-006	  2.44835E-007	  4.40150E-007
  8.38861E+003	 -1.23677E-005	 -1.48842E-005	 -1.24591E-005	 -1.29135E-005
  9.22747E+003	  2.50789E-006	  1.33095E-006	  3.02822E-006	  7.20748E-006
  1.00663E+004	  3.37176E-006	  3.22782E-006	  2.65317E-007	  3.87085E-006
  1.09052E+004	 -1.34201E-006	 -3.14802E-006	  4.94175E-006	 -5.51446E-006
  1.17441E+004	 -6.64491E-006	 -6.28165E-006	 -9.05704E-006	 -3.91554E-006

"Count Rate"
       0.23438	     295.85706	     372.07074	     295.85706	     372.07074
       0.46875	     301.81287	     377.87723	     301.81287	     377.87723
       0.70313	     298.43820	     373.26532	     298.43820	     373.26532
       0.93750	     294.19745	     369.46402	     294.19745	     369.46402
       1.17188	     301.42462	     374.13565	     301.42462	     374.13565
       1.40625	     295.02939	     370.39835	     295.02939	     370.39835
       1.64063	     297.46545	     372.79175	     297.46545	     372.79175
       1.87500	     297.81104	     371.00842	     297.81104	     371.00842
       2.10938	     292.81516	     367.27966	     292.81516	     367.27966
       2.34375	     298.51498	     373.86261	     298.51498	     373.86261
       2.57813	     296.82126	     372.84723	     296.82126	     372.84723
       2.81250	     303.78818	     375.33875	     303.78818	     375.33875
       3.04688	     296.19836	     371.04257	     296.19836	     371.04257
       3.28125	     294.30411	     370.57327	     294.30411	     370.57327
       3.51563	     299.58585	     371.52039	     299.58585	     371.52039
       3.75000	     301.42462	     374.88654	     301.42462	     374.88654
       3.98438	     296.14716	     371.72519	     296.14716	     371.72519
       4.21875	     294.65396	     370.26608	     294.65396	     370.26608
       4.45313	     293.54898	     372.01529	     293.54898	     372.01529
       4.68750	     296.87671	     370.41541	     296.87671	     370.41541
       4.92188	     299.60291	     374.34897	     299.60291	     374.34897
       5.15625	     293.11380	     365.83337	     293.11380	     365.83337
       5.39063	     301.07904	     378.12039	     301.07904	     378.12039
       5.62500	     295.36642	     367.94946	     295.36642	     367.94946
       5.85938	     302.55093	     378.34653	     302.55093	     378.34653
       6.09375	     296.36902	     370.80365	     296.36902	     370.80365
       6.32813	     296.35623	     371.10229	     296.35623	     371.10229
       6.56250	     304.69263	     384.78867	     304.69263	     384.78867
       6.79688	     294.23160	     370.12958	     294.23160	     370.12958
       7.03125	     292.47812	     368.62357	     292.47812	     368.62357
       7.26563	     289.90979	     365.46646	     289.90979	     365.46646
       7.50000	     299.72235	     373.87540	     299.72235	     373.87540
       7.73438	     294.99100	     373.64075	     294.99100	     373.64075
       7.96875	     295.46457	     369.22937	     295.46457	     369.22937
       8.20313	     297.62332	     372.11768	     297.62332	     372.11768
       8.43750	     298.18222	     373.71756	     298.18222	     373.71756
       8.67188	     297.53799	     374.52814	     297.53799	     374.52814
       8.90625	     296.11731	     372.92828	     296.11731	     372.92828
       9.14063	     299.08667	     373.05627	     299.08667	     373.05627
       9.37500	     296.97910	     374.23804	     296.97910	     374.23804
       9.60938	     297.60626	     371.43933	     297.60626	     371.43933
       9.84375	     293.11380	     366.34106	     293.11380	     366.34106
      10.07813	     300.37936	     373.26532	     300.37936	     373.26532
      10.31250	     300.21725	     375.05292	     300.21725	     375.05292
      10.54688	     296.02344	     375.96164	     296.02344	     375.96164
      10.78125	     304.06122	     382.20755	     304.06122	     382.20755
      11.01563	     294.41504	     371.34973	     294.41504	     371.34973
      11.25000	     297.90915	     374.58362	     297.90915	     374.58362
      11.48438	     296.64206	     373.80289	     296.64206	     373.80289
      11.71875	     296.88953	     372.86002	     296.88953	     372.86002
      11.95313	     296.34769	     371.07669	     296.34769	     371.07669
      12.18750	     299.51758	     376.22189	     299.51758	     376.22189
      12.42188	     295.92105	     369.89493	     295.92105	     369.89493
      12.65625	     293.59592	     369.25925	     293.59592	     369.25925
      12.89063	     299.14212	     378.18011	     299.14212	     378.18011
      13.12500	     295.68213	     369.82666	     295.68213	     369.82666
      13.35938	     296.79138	     370.21490	     296.79138	     370.21490
      13.59375	     305.52029	     381.80652	     305.52029	     381.80652
      13.82813	     300.68655	     373.40186	     300.68655	     373.40186
      14.06250	     302.32480	     378.04361	     302.32480	     378.04361
      14.29688	     302.06885	     376.64853	     302.06885	     376.64853
      14.53125	     302.08591	     380.02744	     302.08591	     380.02744
      14.76563	     297.48679	     374.20392	     297.48679	     374.20392
      15.00000	     292.39279	     370.81644	     292.39279	     370.81644
      15.23438	     295.25125	     371.60571	     295.25125	     371.60571
      15.46875	     293.30579	     365.69684	     293.30579	     365.69684
      15.70313	     302.69171	     378.87982	     302.69171	     378.87982
      15.93750	     301.27957	     377.57431	     301.27957	     377.57431
      16.17188	     296.94498	     375.80377	     296.94498	     375.80377
      16.40625	     291.91071	     366.55438	     291.91071	     366.55438
      16.64063	     297.05591	     375.02731	     297.05591	     375.02731
      16.87500	     296.65488	     369.86078	     296.65488	     369.86078
      17.10938	     299.93140	     374.75854	     299.93140	     374.75854
      17.34375	     294.93127	     374.27219	     294.93127	     374.27219
      17.57813	     299.35544	     373.37625	     299.35544	     373.37625
      17.81250	     298.13101	     373.93088	     298.13101	     373.93088
      18.04688	     293.99695	     369.11844	     293.99695	     369.11844
      18.28125	     294.18466	     367.15594	     294.18466	     367.15594
      18.51563	     296.82977	     373.51276	     296.82977	     373.51276
      18.75000	     296.42023	     370.35995	     296.42023	     370.35995
      18.98438	     294.93979	     371.31561	     294.93979	     371.31561
      19.21875	     297.09003	     374.48547	     297.09003	     374.48547
      19.45313	     299.02267	     373.19278	     299.02267	     373.19278
      19.68750	     292.95596	     368.15854	     292.95596	     368.15854
      19.92188	     294.99954	     365.29156	     294.99954	     365.29156
      20.15625	     296.06610	     375.01453	     296.06610	     375.01453
      20.39063	     296.66766	     371.91290	     296.66766	     371.91290
      20.62500	     301.80432	     381.17084	     301.80432	     381.17084
      20.85938	     301.14731	     377.94122	     301.14731	     377.94122
      21.09375	     299.13788	     375.69711	     299.13788	     375.69711
      21.32813	     294.22733	     367.32660	     294.22733	     367.32660
      21.56250	     296.86392	     371.00415	     296.86392	     371.00415
      21.79688	     292.48666	     364.60040	     292.48666	     364.60040
      22.03125	     296.87244	     370.51779	     296.87244	     370.51779
      22.26563	     300.39218	     373.82846	     300.39218	     373.82846
      22.50000	     301.06625	     376.54187	     301.06625	     376.54187
      22.73438	     294.93127	     368.29077	     294.93127	     368.29077
      22.96875	     301.77444	     377.33539	     301.77444	     377.33539
      23.20313	     296.01920	     372.03235	     296.01920	     372.03235
      23.43750	     298.19501	     372.64670	     298.19501	     372.64670
      23.67188	     298.71976	     374.31058	     298.71976	     374.31058
      23.90625	     299.68823	     372.61685	     299.68823	     372.61685
      24.14063	     293.01569	     370.12103	     293.01569	     370.12103
      24.37500	     305.19604	     384.42603	     305.19604	     384.42603
      24.60938	     305.50751	     380.99591	     305.50751	     380.99591
      24.84375	     297.00043	     368.29504	     297.00043	     368.29504
      25.07813	     298.55765	     372.24994	     298.55765	     372.24994
      25.31250	     299.73090	     375.27902	     299.73090	     375.27902
      25.54688	     299.50903	     371.46494	     299.50903	     371.46494
      25.78125	     299.03546	     374.77133	     299.03546	     374.77133
      26.01563	     298.15234	     372.20728	     298.15234	     372.20728
      26.25000	     297.93048	     373.19705	     297.93048	     373.19705
      26.48438	     298.13956	     374.83105	     298.13956	     374.83105
      26.71875	     295.59256	     367.03647	     295.59256	     367.03647
      26.95313	     294.99527	     371.16629	     294.99527	     371.16629
      27.18750	     290.05060	     361.59265	     290.05060	     361.59265
      27.42188	     300.32819	     377.63403	     300.32819	     377.63403
      27.65625	     297.89209	     372.18167	     297.89209	     372.18167
      27.89063	     304.21054	     385.62488	     304.21054	     385.62488
      28.12500	     289.85434	     362.62936	     289.85434	     362.62936
      28.35938	     304.45370	     381.14951	     304.45370	     381.14951
      28.59375	     292.68292	     366.05948	     292.68292	     366.05948
      28.82813	     297.62332	     371.72519	     297.62332	     371.72519
      29.06250	     296.54395	     373.12027	     296.54395	     373.12027
      29.29688	     297.79825	     368.44437	     297.79825	     368.44437
      29.53125	     301.29236	     378.18011	     301.29236	     378.18011
      29.76563	     300.79321	     374.25510	     300.79321	     374.25510
      30.00000	     298.04996	     374.28497	     298.04996	     374.28497
      30.23438	     300.93399	     379.66483	     300.93399	     379.66483
      30.46875	     295.20859	     370.73965	     295.20859	     370.73965
      30.70313	     302.61493	     372.13046	     302.61493	     372.13046
      30.93750	     292.54211	     365.29581	     292.54211	     365.29581
      31.17188	     297.58066	     371.31989	     297.58066	     371.31989
      31.40625	     292.90475	     366.74637	     292.90475	     366.74637
      31.64063	     295.25549	     369.08859	     295.25549	     369.08859
      31.87500	     299.27011	     377.06662	     299.27011	     377.06662
      32.10938	     296.88525	     376.53333	     296.88525	     376.53333
      32.34375	     297.60199	     372.22861	     297.60199	     372.22861
      32.57813	     292.67438	     366.07657	     292.67438	     366.07657
      32.81250	     293.87323	     371.82330	     293.87323	     371.82330
      33.04688	     293.74524	     368.47424	     293.74524	     368.47424
      33.28125	     293.71536	     368.32065	     293.71536	     368.32065
      33.51563	     300.05087	     375.35156	     300.05087	     375.35156
      33.75000	     299.46210	     375.21075	     299.46210	     375.21075
      33.98438	     299.41943	     373.14160	     299.41943	     373.14160
      34.21875	     296.95776	     374.14844	     296.95776	     374.14844
      34.45313	     299.19333	     373.10321	     299.19333	     373.10321
      34.68750	     296.29648	     370.18076	     296.29648	     370.18076
      34.92188	     292.56772	     366.52451	     292.56772	     366.52451
      35.15625	     292.61465	     366.28989	     292.61465	     366.28989
      35.39063	     294.41077	     369.30615	     294.41077	     369.30615
      35.62500	     296.31781	     372.76614	     296.31781	     372.76614
      35.85938	     302.68320	     376.27307	     302.68320	     376.27307
      36.09375	     300.05087	     375.50089	     300.05087	     375.50089
      36.32813	     292.86209	     366.15335	     292.86209	     366.15335
      36.56250	     294.28705	     370.72260	     294.28705	     370.72260
      36.79688	     300.70361	     374.37457	     300.70361	     374.37457
      37.03125	     297.72998	     371.34122	     297.72998	     371.34122
      37.26563	     294.21454	     368.89661	     294.21454	     368.89661
      37.50000	     290.11459	     365.27023	     290.11459	     365.27023
      37.73438	     300.20444	     376.01285	     300.20444	     376.01285
      37.96875	     300.38364	     375.04865	     300.38364	     375.04865
      38.20313	     298.80936	     369.42990	     298.80936	     369.42990
      38.43750	     297.16681	     374.08871	     297.16681	     374.08871
      38.67188	     300.28125	     376.62292	     300.28125	     376.62292
      38.90625	     302.86237	     378.25266	     302.86237	     378.25266
      39.14063	     292.99435	     371.04681	     292.99435	     371.04681
      39.37500	     293.90735	     368.69180	     293.90735	     368.69180
      39.60938	     301.22409	     375.42407	     301.22409	     375.42407
      39.84375	     298.42538	     372.24994	     298.42538	     372.24994
      40.07813	     292.74265	     366.72076	     292.74265	     366.72076
      40.31250	     295.49869	     371.48199	     295.49869	     371.48199
      40.54688	     301.86404	     378.07346	     301.86404	     378.07346
      40.78125	     298.26755	     370.81644	     298.26755	     370.81644
      41.01563	     297.71292	     372.57419	     297.71292	     372.57419
      41.25000	     298.36139	     375.02304	     298.36139	     375.02304
      41.48438	     300.43057	     375.41556	     300.43057	     375.41556
      41.71875	     297.58066	     374.04178	     297.58066	     374.04178
      41.95313	     296.94070	     372.13046	     296.94070	     372.13046
      42.18750	     299.22745	     372.79175	     299.22745	     372.79175
      42.42188	     297.17535	     368.66623	     297.17535	     368.66623
      42.65625	     304.64569	     380.07864	     304.64569	     380.07864
      42.89063	     295.97653	     372.04941	     295.97653	     372.04941
      43.12500	     298.51926	     374.93344	     298.51926	     374.93344
      43.35938	     297.11990	     374.35751	     297.11990	     374.35751
      43.59375	     297.77692	     376.45654	     297.77692	     376.45654
      43.82813	     292.58478	     364.21216	     292.58478	     364.21216
      44.06250	     299.10800	     373.71756	     299.10800	     373.71756
      44.29688	     298.57471	     371.48199	     298.57471	     371.48199
      44.53125	     291.75284	     366.45627	     291.75284	     366.45627
      44.76563	     300.95105	     374.57507	     300.95105	     374.57507
      45.00000	     291.01904	     362.25818	     291.01904	     362.25818
      45.23438	     298.28461	     373.71329	     298.28461	     373.71329
      45.46875	     292.46960	     364.24203	     292.46960	     364.24203
      45.70313	     302.03043	     379.67334	     302.03043	     379.67334
      45.93750	     303.22501	     375.62460	     303.22501	     375.62460
      46.17188	     300.08926	     378.95233	     300.08926	     378.95233
      46.40625	     291.77417	     364.01593	     291.77417	     364.01593
      46.64063	     293.03275	     370.98282	     293.03275	     370.98282
      46.87500	     297.09430	     368.68756	     297.09430	     368.68756
      47.10938	     297.99875	     373.15439	     297.99875	     373.15439
      47.34375	     301.77020	     378.11612	     301.77020	     378.11612
      47.57813	     296.10025	     369.32748	     296.10025	     369.32748
      47.81250	     292.90048	     369.59628	     292.90048	     369.59628
      48.04688	     294.53024	     368.12012	     294.53024	     368.12012
      48.28125	     298.31445	     374.31485	     298.31445	     374.31485
      48.51563	     293.32712	     369.20377	     293.32712	     369.20377
      48.75000	     298.05423	     373.60236	     298.05423	     373.60236
      48.98438	     293.14795	     367.39059	     293.14795	     367.39059
      49.21875	     294.97821	     368.61929	     294.97821	     368.61929
      49.45313	     295.56696	     369.22510	     295.56696	     369.22510
      49.68750	     296.10025	     369.96320	     296.10025	     369.96320
      49.92188	     296.65488	     371.97263	     296.65488	     371.97263
      50.15625	     298.13101	     374.77133	     298.13101	     374.77133
      50.39063	     296.56100	     370.49646	     296.56100	     370.49646
      50.62500	     302.25229	     375.99152	     302.25229	     375.99152
      50.85938	     299.15921	     374.22525	     299.15921	     374.22525
      51.09375	     302.86237	     381.57611	     302.86237	     381.57611
      51.32813	     292.79810	     366.46478	     292.79810	     366.46478
      51.56250	     302.39734	     378.62384	     302.39734	     378.62384
      51.79688	     302.67038	     375.18518	     302.67038	     375.18518
      52.03125	     297.31613	     374.37885	     297.31613	     374.37885
      52.26563	     297.38013	     372.99655	     297.38013	     372.99655
      52.50000	     295.20004	     369.18243	     295.20004	     369.18243
      52.73438	     292.84076	     369.39148	     292.84076	     369.39148
      52.96875	     302.87091	     375.52222	     302.87091	     375.52222
      53.20313	     296.96631	     375.58621	     296.96631	     375.58621
      53.43750	     300.33243	     372.78748	     300.33243	     372.78748
      53.67188	     302.74292	     378.89688	     302.74292	     378.89688
      53.90625	     294.99100	     369.46402	     294.99100	     369.46402
      54.14063	     301.12170	     375.95737	     301.12170	     375.95737
      54.37500	     296.57806	     371.91290	     296.57806	     371.91290
      54.60938	     292.68716	     367.83429	     292.68716	     367.83429
      54.84375	     295.95944	     369.72855	     295.95944	     369.72855
      55.07813	     306.74472	     380.77405	     306.74472	     380.77405
      55.31250	     298.15234	     374.95905	     298.15234	     374.95905
      55.54688	     294.27426	     370.18076	     294.27426	     370.18076
      55.78125	     303.66019	     377.50604	     303.66019	     377.50604
      56.01563	     299.66690	     375.01877	     299.66690	     375.01877
      56.25000	     294.16333	     365.91016	     294.16333	     365.91016
      56.48438	     294.90994	     371.63559	     294.90994	     371.63559
      56.71875	     298.43393	     371.30280	     298.43393	     371.30280
      56.95313	     298.76242	     372.64243	     298.76242	     372.64243
      57.18750	     295.62241	     371.05963	     295.62241	     371.05963
      57.42188	     299.21466	     370.73538	     299.21466	     370.73538
      57.65625	     296.80420	     372.45898	     296.80420	     372.45898
      57.89063	     301.07053	     377.14767	     301.07053	     377.14767
      58.12500	     294.67102	     370.70554	     294.67102	     370.70554
      58.35938	     296.53540	     371.77637	     296.53540	     371.77637
      58.59375	     290.44308	     366.51599	     290.44308	     366.51599
      58.82813	     288.28006	     361.85291	     288.28006	     361.85291
      59.06250	     302.04324	     377.71509	     302.04324	     377.71509
      59.29688	     297.75986	     370.08691	     297.75986	     370.08691
      59.53125	     299.08240	     374.50256	     299.08240	     374.50256

Monitor Diode	 452024.51
"StandardDeviation"
  3.12500E-006	  9.10834E-003
  6.25000E-006	  9.10840E-003
  9.37500E-006	  9.10830E-003
  1.25000E-005	  9.10839E-003
  1.56250E-005	  9.10830E-003
  1.87500E-005	  9.10834E-003
  2.18750E-005	  9.10841E-003
  2.50000E-005	  9.10829E-003
  2.81250E-005	  9.08505E-003
  3.12500E-005	  9.10825E-003
  3.43750E-005	  9.06683E-003
  3.75000E-005	  9.10233E-003
  4.06250E-005	  9.06634E-003
  4.37500E-005	  9.08047E-003
  4.68750E-005	  9.10818E-003
  5.00000E-005	  6.41713E-003
  5.62500E-005	  6.39915E-003
  6.25000E-005	  6.40651E-003
  6.87500E-005	  6.40288E-003
  7.50000E-005	  6.38321E-003
  8.12500E-005	  6.43283E-003
  8.75000E-005	  6.39908E-003
  9.37500E-005	  6.38678E-003
  1.00000E-004	  4.53395E-003
  1.12500E-004	  4.53567E-003
  1.25000E-004	  4.53533E-003
  1.37500E-004	  4.54396E-003
  1.50000E-004	  4.53246E-003
  1.62500E-004	  4.53788E-003
  1.75000E-004	  4.53417E-003
  1.87500E-004	  4.53476E-003
  2.00000E-004	  3.22576E-003
  2.25000E-004	  3.22580E-003
  2.50000E-004	  3.22893E-003
  2.75000E-004	  3.22653E-003
  3.00000E-004	  3.23149E-003
  3.25000E-004	  3.22648E-003
  3.50000E-004	  3.22823E-003
  3.75000E-004	  3.22565E-003
  4.00000E-004	  2.31135E-003
  4.50000E-004	  2.31236E-003
  5.00000E-004	  2.30875E-003
  5.50000E-004	  2.30957E-003
  6.00000E-004	  2.30934E-003
  6.50000E-004	  2.31017E-003
  7.00000E-004	  2.30840E-003
  7.50000E-004	  2.30982E-003
  8.00000E-004	  1.67273E-003
  9.00000E-004	  1.67241E-003
  1.00000E-003	  1.67203E-003
  1.10000E-003	  1.67059E-003
  1.20000E-003	  1.66930E-003
  1.30000E-003	  1.66937E-003
  1.40000E-003	  1.66837E-003
  1.50000E-003	  1.66816E-003
  1.60000E-003	  1.23438E-003
  1.80000E-003	  1.23328E-003
  2.00000E-003	  1.23158E-003
  2.20000E-003	  1.23112E-003
  2.40000E-003	  1.23009E-003
  2.60000E-003	  1.22936E-003
  2.80000E-003	  1.22814E-003
  3.00000E-003	  1.22719E-003
  3.20000E-003	  9.39218E-004
  3.60000E-003	  9.37346E-004
  4.00000E-003	  9.35703E-004
  4.40000E-003	  9.34024E-004
  4.80000E-003	  9.32713E-004
  5.20000E-003	  9.31201E-004
  5.60000E-003	  9.29511E-004
  6.00000E-003	  9.28018E-004
  6.40000E-003	  7.44351E-004
  7.20000E-003	  7.41163E-004
  8.00000E-003	  7.38386E-004
  8.80000E-003	  7.35746E-004
  9.60000E-003	  7.33000E-004
  1.04000E-002	  7.30366E-004
  1.12000E-002	  7.27678E-004
  1.20000E-002	  7.25063E-004
  1.28000E-002	  6.12657E-004
  1.44000E-002	  6.07140E-004
  1.60000E-002	  6.02268E-004
  1.76000E-002	  5.97523E-004
  1.92000E-002	  5.92873E-004
  2.08000E-002	  5.88343E-004
  2.24000E-002	  5.83827E-004
  2.40000E-002	  5.79500E-004
  2.56000E-002	  5.11151E-004
  2.88000E-002	  5.02263E-004
  3.20000E-002	  4.94557E-004
  3.52000E-002	  4.87164E-004
  3.84000E-002	  4.80190E-004
  4.16000E-002	  4.73718E-004
  4.48000E-002	  4.67578E-004
  4.80000E-002	  4.62113E-004
  5.12000E-002	  4.19242E-004
  5.76000E-002	  4.09323E-004
  6.40000E-002	  4.01204E-004
  7.04000E-002	  3.94131E-004
  7.68000E-002	  3.88152E-004
  8.32000E-002	  3.83149E-004
  8.96000E-002	  3.78828E-004
  9.60000E-002	  3.75358E-004
  1.02400E-001	  3.47346E-004
  1.15200E-001	  3.42502E-004
  1.28000E-001	  3.39130E-004
  1.40800E-001	  3.36718E-004
  1.53600E-001	  3.34971E-004
  1.66400E-001	  3.33684E-004
  1.79200E-001	  3.32813E-004
  1.92000E-001	  3.30382E-004
  2.04800E-001	  3.06231E-004
  2.30400E-001	  3.06231E-004
  2.56000E-001	  3.06231E-004
  2.81600E-001	  3.06231E-004
  3.07200E-001	  3.06231E-004
  3.32800E-001	  3.06231E-004
  3.58400E-001	  3.06231E-004
  3.84000E-001	  3.06231E-004
  4.09600E-001	  2.74787E-004
  4.60800E-001	  2.74787E-004
  5.12000E-001	  2.74787E-004
  5.63200E-001	  2.74787E-004
  6.14400E-001	  2.74787E-004
  6.65600E-001	  2.74787E-004
  7.16800E-001	  2.74787E-004
  7.68000E-001	  2.74787E-004
  8.19200E-001	  2.45689E-004
  9.21600E-001	  2.45689E-004
  1.02400E+000	  2.45689E-004
  1.12640E+000	  2.45689E-004
  1.22880E+000	  2.45689E-004
  1.33120E+000	  2.45689E-004
  1.43360E+000	  2.45689E-004
  1.53600E+000	  2.45689E-004
  1.63840E+000	  2.00453E-004
  1.84320E+000	  2.00453E-004
  2.04800E+000	  2.00453E-004
  2.25280E+000	  2.00453E-004
  2.45760E+000	  2.00453E-004
  2.66240E+000	  2.00453E-004
  2.86720E+000	  2.00453E-004
  3.07200E+000	  2.00453E-004
  3.27680E+000	  1.53773E-004
  3.68640E+000	  1.53773E-004
  4.09600E+000	  1.53773E-004
  4.50560E+000	  1.53773E-004
  4.91520E+000	  1.53773E-004
  5.32480E+000	  1.53773E-004
  5.73440E+000	  1.53773E-004
  6.14400E+000	  1.53773E-004
  6.55360E+000	  1.13190E-004
  7.37280E+000	  1.13190E-004
  8.19200E+000	  1.13190E-004
  9.01120E+000	  1.13190E-004
  9.83040E+000	  1.13190E-004
  1.06496E+001	  1.13190E-004
  1.14688E+001	  1.13190E-004
  1.22880E+001	  1.13190E-004
  1.31072E+001	  8.16147E-005
  1.47456E+001	  8.16147E-005
  1.63840E+001	  8.16147E-005
  1.80224E+001	  8.16147E-005
  1.96608E+001	  8.16147E-005
  2.12992E+001	  8.16147E-005
  2.29376E+001	  8.16147E-005
  2.45760E+001	  8.16147E-005
  2.62144E+001	  5.82678E-005
  2.94912E+001	  5.82678E-005
  3.27680E+001	  5.82678E-005
  3.60448E+001	  5.82678E-005
  3.93216E+001	  5.82678E-005
  4.25984E+001	  5.82678E-005
  4.58752E+001	  5.82678E-005
  4.91520E+001	  5.82678E-005
  5.24288E+001	  4.13987E-005
  5.89824E+001	  4.13987E-005
  6.55360E+001	  4.13987E-005
  7.20896E+001	  4.13987E-005
  7.86432E+001	  4.13987E-005
  8.51968E+001	  4.13987E-005
  9.17504E+001	  4.13987E-005
  9.83040E+001	  4.13987E-005
  1.04858E+002	  2.93430E-005
  1.17965E+002	  2.93430E-005
  1.31072E+002	  2.93430E-005
  1.44179E+002	  2.93430E-005
  1.57286E+002	  2.93430E-005
  1.70394E+002	  2.93430E-005
  1.83501E+002	  2.93430E-005
  1.96608E+002	  2.93430E-005
  2.09715E+002	  2.07733E-005
  2.35930E+002	  2.07733E-005
  2.62144E+002	  2.07733E-005
  2.88358E+002	  2.07733E-005
  3.14573E+002	  2.07733E-005
  3.40787E+002	  2.07733E-005
  3.67002E+002	  2.07733E-005
  3.93216E+002	  2.07733E-005
  4.19430E+002	  1.46976E-005
  4.71859E+002	  1.46976E-005
  5.24288E+002	  1.46976E-005
  5.76717E+002	  1.46976E-005
  6.29146E+002	  1.46976E-005
  6.81574E+002	  1.46976E-005
  7.34003E+002	  1.46976E-005
  7.86432E+002	  1.46976E-005
  8.38861E+002	  1.03959E-005
  9.43718E+002	  1.03959E-005
  1.04858E+003	  1.03959E-005
  1.15343E+003	  1.03959E-005
  1.25829E+003	  1.03959E-005
  1.36315E+003	  1.03959E-005
  1.46801E+003	  1.03959E-005
  1.57286E+003	  1.03959E-005
  1.67772E+003	  7.35208E-006
  1.88744E+003	  7.35208E-006
  2.09715E+003	  7.35208E-006
  2.30687E+003	  7.35208E-006
  2.51658E+003	  7.35208E-006
  2.72630E+003	  7.35208E-006
  2.93601E+003	  7.35208E-006
  3.14573E+003	  7.35208E-006
  3.35544E+003	  5.19909E-006
  3.77487E+003	  5.19909E-006
  4.19430E+003	  5.19909E-006
  4.61373E+003	  5.19909E-006
  5.03317E+003	  5.19909E-006
  5.45260E+003	  5.19909E-006
  5.87203E+003	  5.19909E-006
  6.29146E+003	  5.19909E-006
  6.71089E+003	  3.67645E-006
  7.54975E+003	  3.67645E-006
  8.38861E+003	  3.67645E-006
  9.22747E+003	  3.67645E-006
  1.00663E+004	  3.67645E-006
  1.09052E+004	  3.67645E-006
  1.17441E+004	  3.67645E-006
