ALV-7004 or ALV-7004/FAST Data
Date :	"3/28/2010"
Time :	"12:35:39 PM"
Samplename : 	"BSA 15 g/l in 8.3 mM YCl3"
SampMemo(0) : 	""
SampMemo(1) : 	""
SampMemo(2) : 	""
SampMemo(3) : 	""
SampMemo(4) : 	""
SampMemo(5) : 	""
SampMemo(6) : 	""
SampMemo(7) : 	""
SampMemo(8) : 	""
SampMemo(9) : 	""
Temperature [K] :	     295.64989
Viscosity [cp]  :	       0.94340
Refractive Index:	       1.33200
Wavelength [nm] :	     632.80000
Angle [°]       :	     130.00000
Duration [s]    :	        60
Runs            :	         1
Mode            :	"C-CH0/1+1/0"
MeanCR0 [kHz]   :	     384.88709
MeanCR1 [kHz]   :	     481.72494
MeanCR2 [kHz]   :	       0.00000
MeanCR3 [kHz]   :	       0.00000

"Correlation"
  3.12500E-006	  9.66589E-001	  9.68341E-001	 -3.00000E+000	 -3.00000E+000
  6.25000E-006	  9.63721E-001	  9.40279E-001	 -3.00000E+000	 -3.00000E+000
  9.37500E-006	  9.62554E-001	  9.81961E-001	 -3.00000E+000	 -3.00000E+000
  1.25000E-005	  9.36306E-001	  9.07914E-001	 -3.00000E+000	 -3.00000E+000
  1.56250E-005	  1.01694E+000	  1.01790E+000	 -3.00000E+000	 -3.00000E+000
  1.87500E-005	  1.00692E+000	  1.02310E+000	 -3.00000E+000	 -3.00000E+000
  2.18750E-005	  9.78253E-001	  9.69287E-001	 -3.00000E+000	 -3.00000E+000
  2.50000E-005	  1.00959E+000	  1.02077E+000	 -3.00000E+000	 -3.00000E+000
  2.81250E-005	  9.85490E-001	  9.95764E-001	 -3.00000E+000	 -3.00000E+000
  3.12500E-005	  9.84093E-001	  9.65510E-001	 -3.00000E+000	 -3.00000E+000
  3.43750E-005	  9.53169E-001	  9.63895E-001	 -3.00000E+000	 -2.99986E+000
  3.75000E-005	  9.97919E-001	  9.65592E-001	 -3.00000E+000	 -3.00000E+000
  4.06250E-005	  9.74716E-001	  9.90104E-001	 -3.00000E+000	  1.28767E+000
  4.37500E-005	  9.97750E-001	  9.98586E-001	 -3.00000E+000	  1.49353E+000
  4.68750E-005	  9.83923E-001	  9.63370E-001	 -3.00000E+000	 -9.22269E-001
  5.00000E-005	  9.96515E-001	  9.94950E-001	 -3.00000E+000	  2.61360E+000
  5.62500E-005	  9.88055E-001	  9.76363E-001	 -3.00000E+000	  1.25847E+000
  6.25000E-005	  9.98813E-001	  1.00090E+000	 -3.00000E+000	  1.31514E+000
  6.87500E-005	  9.76410E-001	  9.94325E-001	 -2.91911E+000	  1.49862E+000
  7.50000E-005	  9.70031E-001	  9.73392E-001	  2.44692E+000	  1.01210E+000
  8.12500E-005	  1.01732E+000	  1.00205E+000	  1.42473E+000	  1.06052E+000
  8.75000E-005	  9.79111E-001	  9.79065E-001	  1.38654E+000	  1.03175E+000
  9.37500E-005	  9.75110E-001	  9.65923E-001	  1.29101E+000	  1.07464E+000
  1.00000E-004	  9.71891E-001	  9.75207E-001	  1.14632E+000	  1.00460E+000
  1.12500E-004	  9.77584E-001	  9.74255E-001	  1.16040E+000	  1.03519E+000
  1.25000E-004	  9.84285E-001	  9.82725E-001	  1.06934E+000	  1.04203E+000
  1.37500E-004	  9.85289E-001	  9.79157E-001	  1.00097E+000	  1.03371E+000
  1.50000E-004	  9.82630E-001	  9.86282E-001	  9.71228E-001	  1.02580E+000
  1.62500E-004	  9.78174E-001	  9.77910E-001	  9.68355E-001	  1.01552E+000
  1.75000E-004	  9.78816E-001	  9.77951E-001	  9.58230E-001	  1.02098E+000
  1.87500E-004	  9.79032E-001	  9.78567E-001	  9.72962E-001	  1.02826E+000
  2.00000E-004	  9.72711E-001	  9.72021E-001	  9.70184E-001	  1.01136E+000
  2.25000E-004	  9.73022E-001	  9.70297E-001	  9.73489E-001	  1.00766E+000
  2.50000E-004	  9.72946E-001	  9.70887E-001	  9.69903E-001	  1.00783E+000
  2.75000E-004	  9.74473E-001	  9.75793E-001	  9.74209E-001	  1.00752E+000
  3.00000E-004	  9.73547E-001	  9.69747E-001	  9.67862E-001	  1.00143E+000
  3.25000E-004	  9.68163E-001	  9.68703E-001	  9.70919E-001	  9.95431E-001
  3.50000E-004	  9.71169E-001	  9.70577E-001	  9.76599E-001	  1.00492E+000
  3.75000E-004	  9.73842E-001	  9.75720E-001	  9.73263E-001	  9.98538E-001
  4.00000E-004	  9.72166E-001	  9.71832E-001	  9.74147E-001	  9.94401E-001
  4.50000E-004	  9.63854E-001	  9.63159E-001	  9.74389E-001	  9.92412E-001
  5.00000E-004	  9.59554E-001	  9.57602E-001	  9.65600E-001	  9.95249E-001
  5.50000E-004	  9.59480E-001	  9.59230E-001	  9.66612E-001	  9.86787E-001
  6.00000E-004	  9.55107E-001	  9.54179E-001	  9.65177E-001	  9.82122E-001
  6.50000E-004	  9.55466E-001	  9.53950E-001	  9.59235E-001	  9.84246E-001
  7.00000E-004	  9.49508E-001	  9.51486E-001	  9.62167E-001	  9.76140E-001
  7.50000E-004	  9.50574E-001	  9.51224E-001	  9.59362E-001	  9.73919E-001
  8.00000E-004	  9.48489E-001	  9.47843E-001	  9.56617E-001	  9.71489E-001
  9.00000E-004	  9.40968E-001	  9.40012E-001	  9.53722E-001	  9.68752E-001
  1.00000E-003	  9.35401E-001	  9.32693E-001	  9.47643E-001	  9.60628E-001
  1.10000E-003	  9.34144E-001	  9.33588E-001	  9.43409E-001	  9.54735E-001
  1.20000E-003	  9.29037E-001	  9.26625E-001	  9.35725E-001	  9.51928E-001
  1.30000E-003	  9.23793E-001	  9.22528E-001	  9.29830E-001	  9.45353E-001
  1.40000E-003	  9.19617E-001	  9.19696E-001	  9.22008E-001	  9.43207E-001
  1.50000E-003	  9.14287E-001	  9.13368E-001	  9.21326E-001	  9.35911E-001
  1.60000E-003	  9.08572E-001	  9.06911E-001	  9.15856E-001	  9.31887E-001
  1.80000E-003	  9.00773E-001	  8.98361E-001	  9.03302E-001	  9.24908E-001
  2.00000E-003	  8.91339E-001	  8.90402E-001	  8.99815E-001	  9.14272E-001
  2.20000E-003	  8.81117E-001	  8.79162E-001	  8.86471E-001	  9.05218E-001
  2.40000E-003	  8.73502E-001	  8.74536E-001	  8.79171E-001	  8.95791E-001
  2.60000E-003	  8.64424E-001	  8.64754E-001	  8.73549E-001	  8.86014E-001
  2.80000E-003	  8.56525E-001	  8.55871E-001	  8.66136E-001	  8.76281E-001
  3.00000E-003	  8.47878E-001	  8.46860E-001	  8.58253E-001	  8.69997E-001
  3.20000E-003	  8.40712E-001	  8.39953E-001	  8.47960E-001	  8.59030E-001
  3.60000E-003	  8.22789E-001	  8.22486E-001	  8.32266E-001	  8.42848E-001
  4.00000E-003	  8.07262E-001	  8.06254E-001	  8.16089E-001	  8.28937E-001
  4.40000E-003	  7.92516E-001	  7.92225E-001	  7.97690E-001	  8.08992E-001
  4.80000E-003	  7.75848E-001	  7.76451E-001	  7.86126E-001	  7.93076E-001
  5.20000E-003	  7.59654E-001	  7.59596E-001	  7.68708E-001	  7.79117E-001
  5.60000E-003	  7.46330E-001	  7.44520E-001	  7.53998E-001	  7.63314E-001
  6.00000E-003	  7.30926E-001	  7.30265E-001	  7.37355E-001	  7.47647E-001
  6.40000E-003	  7.16490E-001	  7.16392E-001	  7.23829E-001	  7.33733E-001
  7.20000E-003	  6.88839E-001	  6.89428E-001	  6.95211E-001	  7.05778E-001
  8.00000E-003	  6.62707E-001	  6.62107E-001	  6.68725E-001	  6.79039E-001
  8.80000E-003	  6.36265E-001	  6.36040E-001	  6.42567E-001	  6.52507E-001
  9.60000E-003	  6.12052E-001	  6.11381E-001	  6.17498E-001	  6.27517E-001
  1.04000E-002	  5.88367E-001	  5.87925E-001	  5.93865E-001	  6.03032E-001
  1.12000E-002	  5.65726E-001	  5.65803E-001	  5.71123E-001	  5.80264E-001
  1.20000E-002	  5.43610E-001	  5.43552E-001	  5.48837E-001	  5.57073E-001
  1.28000E-002	  5.22626E-001	  5.22324E-001	  5.27981E-001	  5.36175E-001
  1.44000E-002	  4.83550E-001	  4.82910E-001	  4.87869E-001	  4.95405E-001
  1.60000E-002	  4.47566E-001	  4.47400E-001	  4.52514E-001	  4.58608E-001
  1.76000E-002	  4.14041E-001	  4.14131E-001	  4.17429E-001	  4.24054E-001
  1.92000E-002	  3.83002E-001	  3.82744E-001	  3.87273E-001	  3.92333E-001
  2.08000E-002	  3.54460E-001	  3.54576E-001	  3.57574E-001	  3.63329E-001
  2.24000E-002	  3.27558E-001	  3.27325E-001	  3.31259E-001	  3.36758E-001
  2.40000E-002	  3.03354E-001	  3.04190E-001	  3.07135E-001	  3.11794E-001
  2.56000E-002	  2.81343E-001	  2.81726E-001	  2.84457E-001	  2.89126E-001
  2.88000E-002	  2.41755E-001	  2.41359E-001	  2.43608E-001	  2.47937E-001
  3.20000E-002	  2.07300E-001	  2.07314E-001	  2.08980E-001	  2.12640E-001
  3.52000E-002	  1.77882E-001	  1.78082E-001	  1.79250E-001	  1.83133E-001
  3.84000E-002	  1.52989E-001	  1.53430E-001	  1.53969E-001	  1.57215E-001
  4.16000E-002	  1.31811E-001	  1.32035E-001	  1.32663E-001	  1.35498E-001
  4.48000E-002	  1.13640E-001	  1.13977E-001	  1.13950E-001	  1.16966E-001
  4.80000E-002	  9.75392E-002	  9.81062E-002	  9.81105E-002	  1.00784E-001
  5.12000E-002	  8.47388E-002	  8.51229E-002	  8.50241E-002	  8.75175E-002
  5.76000E-002	  6.30349E-002	  6.33297E-002	  6.31681E-002	  6.49990E-002
  6.40000E-002	  4.67903E-002	  4.71854E-002	  4.68511E-002	  4.79760E-002
  7.04000E-002	  3.52978E-002	  3.56604E-002	  3.53239E-002	  3.64817E-002
  7.68000E-002	  2.61911E-002	  2.68338E-002	  2.59245E-002	  2.72129E-002
  8.32000E-002	  2.01951E-002	  2.06424E-002	  1.91157E-002	  2.11116E-002
  8.96000E-002	  1.54001E-002	  1.56144E-002	  1.51788E-002	  1.64072E-002
  9.60000E-002	  1.16207E-002	  1.20358E-002	  1.15319E-002	  1.22838E-002
  1.02400E-001	  9.05988E-003	  9.15536E-003	  8.86701E-003	  9.64753E-003
  1.15200E-001	  5.02396E-003	  4.99939E-003	  4.52343E-003	  5.68847E-003
  1.28000E-001	  2.54587E-003	  2.36638E-003	  2.30997E-003	  2.53209E-003
  1.40800E-001	  1.20890E-003	  1.24604E-003	  1.49297E-003	  1.31813E-003
  1.53600E-001	  5.32218E-004	  8.97881E-004	  6.29098E-004	  6.72595E-004
  1.66400E-001	  3.67490E-004	  4.63334E-004	  3.89966E-004	  3.71661E-004
  1.79200E-001	 -6.33387E-005	 -3.94280E-004	 -1.30205E-004	 -8.40836E-005
  1.92000E-001	  1.47461E-004	 -4.41856E-005	  4.02962E-004	  2.21504E-005
  2.04800E-001	  1.62758E-004	  2.22842E-004	 -7.72586E-005	  5.37456E-004
  2.30400E-001	  2.07688E-004	  1.20547E-004	 -3.94723E-005	  3.73554E-004
  2.56000E-001	 -3.67329E-004	 -5.73069E-004	 -4.72585E-004	  1.62826E-005
  2.81600E-001	 -3.70629E-004	 -3.26569E-004	 -2.49908E-004	 -2.29892E-004
  3.07200E-001	 -4.24758E-004	 -4.72875E-004	 -5.67978E-004	 -2.66523E-004
  3.32800E-001	 -2.61793E-004	 -5.84721E-004	  1.07134E-004	 -3.05489E-004
  3.58400E-001	  5.35055E-004	  1.04672E-004	  3.60432E-004	  3.79577E-004
  3.84000E-001	  4.50122E-004	  5.42124E-004	  6.43992E-004	  5.52878E-004
  4.09600E-001	  3.57909E-004	  2.64567E-004	  3.01626E-004	  4.97649E-004
  4.60800E-001	 -3.68306E-005	 -1.17667E-004	 -1.56960E-004	  3.48726E-004
  5.12000E-001	  4.08965E-004	  2.34516E-004	  3.46382E-004	  5.24383E-004
  5.63200E-001	 -1.56500E-004	 -1.47948E-004	 -1.57960E-004	 -2.37894E-004
  6.14400E-001	 -2.30567E-004	 -8.01314E-005	 -3.99653E-004	 -1.22400E-004
  6.65600E-001	 -1.06437E-004	 -8.39948E-005	 -2.25744E-004	  1.46268E-004
  7.16800E-001	 -7.43339E-005	 -1.22183E-004	 -3.40544E-004	  1.99599E-004
  7.68000E-001	 -3.40887E-004	 -2.30002E-004	 -3.19426E-004	 -4.02761E-004
  8.19200E-001	  1.99024E-004	  2.71141E-004	  8.00346E-005	  8.14757E-005
  9.21600E-001	  2.83575E-004	  2.16631E-004	  3.24995E-004	  2.48184E-004
  1.02400E+000	  3.19858E-004	  8.46070E-005	  3.18494E-004	  3.39350E-004
  1.12640E+000	  2.66777E-004	  1.80454E-004	  2.30962E-004	  2.19138E-004
  1.22880E+000	  2.28296E-004	  2.79414E-004	  1.52835E-004	  2.13633E-004
  1.33120E+000	  1.13746E-004	  2.40672E-005	  8.35190E-005	 -3.22897E-005
  1.43360E+000	 -3.43655E-004	 -5.65301E-004	 -3.36162E-004	 -4.18847E-004
  1.53600E+000	  8.00052E-005	  1.29014E-004	 -6.70829E-007	  1.48467E-004
  1.63840E+000	  2.36633E-004	  3.51768E-004	  5.46441E-005	  3.93493E-004
  1.84320E+000	  1.13836E-004	 -2.86659E-005	  2.53318E-004	 -2.19197E-005
  2.04800E+000	 -1.21724E-004	 -1.52859E-004	 -1.44239E-005	 -1.33013E-004
  2.25280E+000	 -3.32482E-004	 -2.70640E-004	 -2.65321E-004	 -4.06535E-004
  2.45760E+000	 -2.65835E-005	  8.98908E-005	  1.73639E-004	 -1.61014E-004
  2.66240E+000	 -3.96702E-004	 -4.47083E-004	 -3.67154E-004	 -4.68783E-004
  2.86720E+000	 -2.05291E-004	 -2.92218E-004	  1.61019E-005	 -2.75524E-004
  3.07200E+000	  4.55501E-005	 -1.75498E-004	 -2.66143E-006	  1.73609E-004
  3.27680E+000	  2.03113E-004	  1.20472E-004	  1.39966E-004	  2.77639E-004
  3.68640E+000	  1.05465E-004	  1.90282E-004	  2.29937E-004	  7.55228E-005
  4.09600E+000	  2.17421E-004	  2.22276E-004	  2.40046E-004	  1.94036E-004
  4.50560E+000	 -9.93236E-005	 -9.05479E-005	  3.89869E-005	 -2.09133E-004
  4.91520E+000	 -5.03929E-005	 -5.87499E-005	 -1.58588E-004	  1.84387E-007
  5.32480E+000	  1.02027E-004	  1.26967E-004	  1.57915E-004	  5.74746E-005
  5.73440E+000	 -1.45330E-004	 -1.15808E-004	 -1.79499E-004	 -7.80398E-005
  6.14400E+000	 -6.35018E-005	 -4.29218E-005	 -1.66118E-004	 -1.15310E-005
  6.55360E+000	  6.97788E-005	  4.35528E-005	  2.35080E-005	  1.04255E-004
  7.37280E+000	  1.44498E-004	  8.55130E-005	  1.78910E-004	  1.04971E-004
  8.19200E+000	 -1.72196E-004	 -2.30185E-004	 -2.06786E-004	 -1.39707E-004
  9.01120E+000	  1.73414E-004	  1.45090E-004	  2.11354E-004	  1.61585E-004
  9.83040E+000	 -1.04784E-004	 -3.99690E-005	 -7.43644E-005	 -1.49226E-004
  1.06496E+001	 -4.39517E-005	 -3.47919E-006	 -5.89560E-005	 -7.30716E-005
  1.14688E+001	 -2.70937E-005	 -8.10795E-006	 -6.41382E-005	  3.17342E-005
  1.22880E+001	 -3.89468E-005	 -2.13115E-005	 -7.74179E-005	 -2.60555E-006
  1.31072E+001	  1.53888E-004	  2.04117E-004	  1.40289E-004	  1.69277E-004
  1.47456E+001	 -5.30810E-005	  9.79242E-006	 -7.63026E-005	 -6.96101E-005
  1.63840E+001	 -4.81491E-005	 -5.14576E-005	 -1.13818E-005	 -5.40504E-005
  1.80224E+001	 -1.09279E-005	 -1.39665E-005	 -2.03073E-005	 -4.31581E-005
  1.96608E+001	 -9.10436E-005	 -4.94417E-005	 -1.14917E-004	 -3.20726E-005
  2.12992E+001	 -7.99564E-005	 -3.86197E-005	 -3.15046E-005	 -1.59457E-004
  2.29376E+001	 -8.13236E-005	 -6.60723E-005	 -8.07144E-005	 -4.17578E-005
  2.45760E+001	 -1.09843E-005	 -4.37666E-006	 -6.08146E-005	  1.18351E-005
  2.62144E+001	 -1.58566E-005	 -8.91121E-006	 -2.10890E-005	 -8.98995E-006
  2.94912E+001	  1.24065E-005	  3.65097E-006	  9.68529E-006	 -8.55669E-006
  3.27680E+001	  4.63139E-005	  4.90368E-005	  7.47417E-005	  4.67729E-006
  3.60448E+001	 -3.23591E-005	  1.56831E-006	  4.58563E-006	 -5.06153E-005
  3.93216E+001	  5.44170E-005	  1.17410E-004	  7.00641E-005	  5.19322E-005
  4.25984E+001	  2.15146E-005	  1.53129E-005	  2.96599E-005	  1.33434E-005
  4.58752E+001	 -1.02735E-004	 -9.46401E-005	 -9.69348E-005	 -1.45807E-004
  4.91520E+001	 -1.74636E-005	  3.72401E-005	 -1.62371E-005	 -1.53090E-005
  5.24288E+001	  1.23707E-005	  2.71469E-005	  1.30945E-005	  1.28626E-006
  5.89824E+001	 -7.70019E-005	 -7.34561E-005	 -8.22309E-005	 -8.53184E-005
  6.55360E+001	 -1.50592E-005	 -9.87081E-006	 -2.70935E-005	 -1.14101E-005
  7.20896E+001	  9.58370E-006	  1.77074E-005	  9.78678E-006	  3.44466E-007
  7.86432E+001	  8.76383E-006	 -2.44372E-005	 -8.15269E-006	  2.49108E-005
  8.51968E+001	 -2.77634E-005	 -1.95520E-005	  1.24417E-006	 -4.87446E-005
  9.17504E+001	 -2.73493E-006	 -6.84082E-006	  3.10168E-005	 -2.61710E-005
  9.83040E+001	 -2.61756E-005	 -3.00620E-005	 -3.23952E-005	 -1.45244E-005
  1.04858E+002	 -2.03367E-005	  4.81650E-006	 -2.17341E-005	 -3.04851E-005
  1.17965E+002	 -8.31744E-006	 -1.33842E-005	 -1.18877E-005	 -1.39990E-006
  1.31072E+002	 -6.77645E-006	 -1.36884E-005	 -1.20883E-005	 -1.68547E-005
  1.44179E+002	  2.66644E-005	  3.94668E-005	  4.12274E-005	  1.02788E-005
  1.57286E+002	  5.07330E-006	  5.68621E-007	  1.80079E-005	  4.07513E-006
  1.70394E+002	  2.64201E-005	  1.82443E-005	  3.71891E-005	  1.09938E-005
  1.83501E+002	  2.06799E-006	  1.54260E-005	  1.82623E-005	 -1.49124E-005
  1.96608E+002	 -1.55196E-005	  8.07360E-006	 -9.28773E-006	 -3.68898E-005
  2.09715E+002	 -1.54993E-005	 -1.53311E-005	 -2.68764E-005	 -2.34138E-005
  2.35930E+002	  3.71764E-005	  2.08046E-005	  4.36399E-005	  3.15004E-005
  2.62144E+002	  1.10032E-005	 -1.70335E-006	  2.04599E-006	  1.28069E-005
  2.88358E+002	 -4.71378E-005	 -4.89307E-005	 -4.51581E-005	 -5.26378E-005
  3.14573E+002	 -1.86428E-005	 -2.04212E-005	 -2.18165E-005	 -2.07843E-005
  3.40787E+002	  1.94605E-005	  1.52255E-005	  1.65883E-005	  2.14461E-005
  3.67002E+002	  3.97952E-005	  4.25181E-005	  5.25083E-005	  3.39561E-005
  3.93216E+002	  7.79693E-006	  1.52461E-005	  1.94377E-005	  5.19462E-006
  4.19430E+002	  1.02484E-005	  1.56404E-005	  1.41258E-005	  5.29277E-006
  4.71859E+002	  3.99697E-006	  5.18619E-006	  3.18486E-006	  1.50276E-006
  5.24288E+002	 -8.04305E-006	 -1.87395E-005	 -5.82623E-006	 -1.07249E-005
  5.76717E+002	 -4.26883E-006	 -6.73271E-006	 -4.91857E-006	 -1.08130E-005
  6.29146E+002	 -1.41659E-005	 -9.87877E-006	 -1.10093E-005	 -2.13213E-005
  6.81574E+002	 -2.32327E-005	 -2.81256E-005	 -2.73993E-005	 -1.31370E-005
  7.34003E+002	 -2.07433E-005	 -2.18989E-005	 -2.04149E-005	 -1.92125E-005
  7.86432E+002	 -1.49969E-005	 -2.26726E-005	 -1.35560E-005	 -1.08932E-005
  8.38861E+002	 -1.23864E-005	 -6.47039E-006	 -2.12822E-005	 -9.61438E-006
  9.43718E+002	  5.24317E-006	  5.79241E-008	  4.63760E-006	  6.78685E-006
  1.04858E+003	  2.19125E-006	 -2.23592E-006	 -1.04926E-006	  3.51750E-006
  1.15343E+003	 -7.04986E-006	 -4.86804E-006	 -5.65157E-006	 -5.37607E-006
  1.25829E+003	 -6.02160E-007	 -9.55352E-007	 -5.48200E-006	  1.42441E-006
  1.36315E+003	 -1.56636E-006	  5.55051E-007	  1.76238E-006	 -2.50498E-006
  1.46801E+003	  2.15011E-005	  1.95376E-005	  2.33950E-005	  1.84962E-005
  1.57286E+003	 -1.14298E-005	 -4.12421E-006	 -5.18558E-006	 -1.17816E-005
  1.67772E+003	 -1.05948E-007	  2.17032E-006	  4.09500E-006	 -4.09706E-006
  1.88744E+003	  1.49184E-005	  1.49682E-005	  1.50561E-005	  1.25368E-005
  2.09715E+003	  3.01754E-006	  5.77761E-006	 -1.47639E-006	  5.07023E-006
  2.30687E+003	  4.59238E-006	  1.46442E-008	  2.67983E-006	  2.56911E-006
  2.51658E+003	 -8.54371E-006	 -8.26829E-006	 -9.99322E-006	 -7.73226E-006
  2.72630E+003	  3.22778E-006	  4.37735E-006	  1.71439E-006	  6.00240E-006
  2.93601E+003	 -2.49736E-006	 -5.72385E-007	 -2.38206E-006	 -7.94219E-006
  3.14573E+003	  1.27717E-005	  1.41219E-005	  1.34390E-005	  1.13697E-005
  3.35544E+003	  8.34291E-006	  1.05256E-005	  7.62697E-006	  8.30486E-006
  3.77487E+003	  7.71170E-006	  7.23147E-006	  5.22704E-006	  9.69309E-006
  4.19430E+003	  7.91351E-006	  8.80145E-006	  1.18402E-005	  5.86596E-006
  4.61373E+003	  1.17417E-005	  1.13407E-005	  1.10495E-005	  1.04601E-005
  5.03317E+003	  5.92653E-006	  6.40344E-006	  5.09026E-006	  3.65862E-006
  5.45260E+003	 -1.92103E-006	 -4.78882E-006	 -5.83255E-006	 -9.35308E-007
  5.87203E+003	  4.31620E-006	  4.68065E-006	  1.60126E-006	  5.94902E-006
  6.29146E+003	 -1.99191E-006	 -1.26670E-006	 -1.30150E-006	 -2.47091E-006
  6.71089E+003	 -4.05877E-006	 -9.38792E-007	 -4.03041E-006	 -3.66996E-006
  7.54975E+003	  2.34065E-006	  4.18876E-006	  3.77767E-006	  1.55332E-006
  8.38861E+003	  2.67489E-006	  7.80159E-007	  4.67948E-006	  3.53220E-006
  9.22747E+003	 -2.14048E-006	 -3.31203E-006	 -3.62182E-006	 -1.60215E-006
  1.00663E+004	  1.89495E-007	 -3.14496E-006	 -2.91567E-007	  1.52032E-007
  1.09052E+004	  3.21913E-006	  3.42927E-006	  6.08913E-006	  4.26684E-007
  1.17441E+004	 -4.42828E-006	 -3.70866E-006	 -4.85688E-006	 -4.61841E-006

"Count Rate"
       0.23438	     383.54291	     477.43625	     383.54291	     477.43625
       0.46875	     379.42590	     475.82358	     379.42590	     475.82358
       0.70313	     392.44672	     489.72754	     392.44672	     489.72754
       0.93750	     390.96631	     487.49200	     390.96631	     487.49200
       1.17188	     386.10269	     482.47052	     386.10269	     482.47052
       1.40625	     382.77496	     478.76309	     382.77496	     478.76309
       1.64063	     390.63782	     490.81546	     390.63782	     490.81546
       1.87500	     385.10013	     477.67944	     385.10013	     477.67944
       2.10938	     385.19824	     483.39206	     385.19824	     483.39206
       2.34375	     380.57782	     475.12390	     380.57782	     475.12390
       2.57813	     377.77057	     478.18713	     377.77057	     478.18713
       2.81250	     382.33554	     478.17432	     382.33554	     478.17432
       3.04688	     383.97382	     479.46704	     383.97382	     479.46704
       3.28125	     388.59851	     485.10712	     388.59851	     485.10712
       3.51563	     390.08746	     487.99969	     390.08746	     487.99969
       3.75000	     391.93051	     492.84622	     391.93051	     492.84622
       3.98438	     385.43289	     480.34589	     385.43289	     480.34589
       4.21875	     382.71951	     478.44739	     382.71951	     478.44739
       4.45313	     383.64957	     483.28964	     383.64957	     483.28964
       4.68750	     383.52158	     482.99103	     383.52158	     482.99103
       4.92188	     377.86017	     476.55313	     377.86017	     476.55313
       5.15625	     389.63522	     487.12082	     389.63522	     487.12082
       5.39063	     382.45071	     482.58145	     382.45071	     482.58145
       5.62500	     386.98157	     486.25476	     386.98157	     486.25476
       5.85938	     383.94394	     479.56516	     383.94394	     479.56516
       6.09375	     393.19760	     492.65424	     393.19760	     492.65424
       6.32813	     389.12326	     483.91254	     389.12326	     483.91254
       6.56250	     389.55417	     487.09094	     389.55417	     487.09094
       6.79688	     384.10181	     474.12558	     384.10181	     474.12558
       7.03125	     384.90387	     484.06186	     384.90387	     484.06186
       7.26563	     382.86029	     479.74860	     382.86029	     479.74860
       7.50000	     391.14124	     489.24973	     391.14124	     489.24973
       7.73438	     386.67865	     486.42114	     386.67865	     486.42114
       7.96875	     381.41827	     474.68021	     381.41827	     474.68021
       8.20313	     380.96176	     478.70334	     380.96176	     478.70334
       8.43750	     385.50540	     484.73593	     385.50540	     484.73593
       8.67188	     383.87567	     478.28952	     383.87567	     478.28952
       8.90625	     383.34238	     481.48499	     383.34238	     481.48499
       9.14063	     381.61026	     477.00961	     381.61026	     477.00961
       9.37500	     384.57962	     478.76309	     384.57962	     478.76309
       9.60938	     385.82114	     482.66251	     385.82114	     482.66251
       9.84375	     386.90903	     484.93646	     386.90903	     484.93646
      10.07813	     385.10013	     483.94241	     385.10013	     483.94241
      10.31250	     385.69315	     481.18210	     385.69315	     481.18210
      10.54688	     382.53177	     478.46017	     382.53177	     478.46017
      10.78125	     392.17795	     486.68140	     392.17795	     486.68140
      11.01563	     385.24091	     481.25888	     385.24091	     481.25888
      11.25000	     382.90295	     481.12238	     382.90295	     481.12238
      11.48438	     387.62579	     483.54562	     387.62579	     483.54562
      11.71875	     386.48666	     483.43472	     386.48666	     483.43472
      11.95313	     381.01297	     478.02499	     381.01297	     478.02499
      12.18750	     386.34161	     483.38351	     386.34161	     483.38351
      12.42188	     384.35776	     481.09250	     384.35776	     481.09250
      12.65625	     388.73074	     481.26315	     388.73074	     481.26315
      12.89063	     382.72375	     479.35611	     382.72375	     479.35611
      13.12500	     386.17096	     483.54562	     386.17096	     483.54562
      13.35938	     380.29196	     481.28021	     380.29196	     481.28021
      13.59375	     382.70242	     478.34073	     382.70242	     478.34073
      13.82813	     387.51059	     481.21194	     387.51059	     481.21194
      14.06250	     386.97729	     484.26663	     386.97729	     484.26663
      14.29688	     387.37405	     482.49185	     387.37405	     482.49185
      14.53125	     385.78271	     481.29727	     385.78271	     481.29727
      14.76563	     387.60019	     487.50052	     387.60019	     487.50052
      15.00000	     387.85617	     484.68475	     387.85617	     484.68475
      15.23438	     381.19217	     476.01556	     381.19217	     476.01556
      15.46875	     381.64011	     477.09067	     381.64011	     477.09067
      15.70313	     381.79797	     479.24518	     381.79797	     479.24518
      15.93750	     379.92932	     476.71524	     379.92932	     476.71524
      16.17188	     386.01309	     481.50632	     386.01309	     481.50632
      16.40625	     384.89532	     483.88693	     384.89532	     483.88693
      16.64063	     382.79202	     478.28098	     382.79202	     478.28098
      16.87500	     383.24426	     481.81351	     383.24426	     481.81351
      17.10938	     382.41232	     478.99774	     382.41232	     478.99774
      17.34375	     384.30658	     482.10361	     384.30658	     482.10361
      17.57813	     380.73993	     478.14447	     380.73993	     478.14447
      17.81250	     380.03171	     474.79541	     380.03171	     474.79541
      18.04688	     390.28796	     490.22672	     390.28796	     490.22672
      18.28125	     379.48990	     478.84415	     379.48990	     478.84415
      18.51563	     388.53879	     482.03537	     388.53879	     482.03537
      18.75000	     381.58466	     480.10696	     381.58466	     480.10696
      18.98438	     387.90735	     484.16425	     387.90735	     484.16425
      19.21875	     381.56760	     481.58313	     381.56760	     481.58313
      19.45313	     380.25357	     479.53101	     380.25357	     479.53101
      19.68750	     382.79630	     480.89624	     382.79630	     480.89624
      19.92188	     388.56436	     484.56528	     388.56436	     484.56528
      20.15625	     383.02240	     480.50375	     383.02240	     480.50375
      20.39063	     381.41400	     476.39954	     381.41400	     476.39954
      20.62500	     382.68109	     478.78015	     382.68109	     478.78015
      20.85938	     384.76733	     480.13684	     384.76733	     480.13684
      21.09375	     384.60522	     481.71964	     384.60522	     481.71964
      21.32813	     384.82281	     480.72559	     384.82281	     480.72559
      21.56250	     386.11975	     485.64893	     386.11975	     485.64893
      21.79688	     383.66235	     480.31604	     383.66235	     480.31604
      22.03125	     388.16333	     480.59760	     388.16333	     480.59760
      22.26563	     381.05136	     474.39862	     381.05136	     474.39862
      22.50000	     384.43884	     480.06430	     384.43884	     480.06430
      22.73438	     387.72391	     481.95428	     387.72391	     481.95428
      22.96875	     384.57535	     483.82294	     384.57535	     483.82294
      23.20313	     387.00290	     482.28281	     387.00290	     482.28281
      23.43750	     381.46948	     476.18622	     381.46948	     476.18622
      23.67188	     386.66586	     480.69574	     386.66586	     480.69574
      23.90625	     386.40134	     480.98157	     386.40134	     480.98157
      24.14063	     383.08215	     482.26999	     383.08215	     482.26999
      24.37500	     380.59915	     475.15802	     380.59915	     475.15802
      24.60938	     386.34589	     481.51486	     386.34589	     481.51486
      24.84375	     388.37238	     486.09689	     388.37238	     486.09689
      25.07813	     385.24091	     482.20175	     385.24091	     482.20175
      25.31250	     388.72223	     485.42282	     388.72223	     485.42282
      25.54688	     379.30643	     476.05396	     379.30643	     476.05396
      25.78125	     386.47388	     487.71384	     386.47388	     487.71384
      26.01563	     383.51303	     479.89365	     383.51303	     479.89365
      26.25000	     385.81259	     481.44232	     385.81259	     481.44232
      26.48438	     384.60522	     481.19489	     384.60522	     481.19489
      26.71875	     384.34924	     483.10193	     384.34924	     483.10193
      26.95313	     381.15375	     478.89108	     381.15375	     478.89108
      27.18750	     378.22705	     478.64362	     378.22705	     478.64362
      27.42188	     384.30658	     482.42786	     384.30658	     482.42786
      27.65625	     387.84335	     486.43393	     387.84335	     486.43393
      27.89063	     388.71368	     484.72742	     388.71368	     484.72742
      28.12500	     378.76889	     473.98907	     378.76889	     473.98907
      28.35938	     385.35608	     485.70013	     385.35608	     485.70013
      28.59375	     375.74405	     472.70062	     375.74405	     472.70062
      28.82813	     388.90994	     487.21893	     388.90994	     487.21893
      29.06250	     382.68536	     477.96954	     382.68536	     477.96954
      29.29688	     389.45178	     488.32819	     389.45178	     488.32819
      29.53125	     389.09766	     485.43988	     389.09766	     485.43988
      29.76563	     388.68384	     486.08838	     388.68384	     486.08838
      30.00000	     383.93115	     478.96786	     383.93115	     478.96786
      30.23438	     379.01205	     476.60007	     379.01205	     476.60007
      30.46875	     383.67517	     480.68719	     383.67517	     480.68719
      30.70313	     386.70853	     483.29391	     386.70853	     483.29391
      30.93750	     380.59061	     476.13928	     380.59061	     476.13928
      31.17188	     380.82098	     477.06082	     380.82098	     477.06082
      31.40625	     383.88849	     484.65915	     383.88849	     484.65915
      31.64063	     381.95157	     479.85098	     381.95157	     479.85098
      31.87500	     385.06171	     480.61893	     385.06171	     480.61893
      32.10938	     383.98233	     475.41400	     383.98233	     475.41400
      32.34375	     384.32791	     483.52429	     384.32791	     483.52429
      32.57813	     381.00870	     476.54886	     381.00870	     476.54886
      32.81250	     385.36462	     479.18546	     385.36462	     479.18546
      33.04688	     380.23224	     475.80225	     380.23224	     475.80225
      33.28125	     382.12650	     477.82877	     382.12650	     477.82877
      33.51563	     386.99008	     484.41595	     386.99008	     484.41595
      33.75000	     388.15906	     485.50815	     388.15906	     485.50815
      33.98438	     382.90723	     482.67105	     382.90723	     482.67105
      34.21875	     385.30917	     480.70853	     385.30917	     480.70853
      34.45313	     383.24426	     479.10440	     383.24426	     479.10440
      34.68750	     381.64011	     477.18881	     381.64011	     477.18881
      34.92188	     384.05060	     481.95004	     384.05060	     481.95004
      35.15625	     388.91849	     487.25735	     388.91849	     487.25735
      35.39063	     380.73566	     479.50116	     380.73566	     479.50116
      35.62500	     396.06030	     493.50751	     396.06030	     493.50751
      35.85938	     384.19565	     482.87155	     384.19565	     482.87155
      36.09375	     381.12390	     477.70505	     381.12390	     477.70505
      36.32813	     382.54459	     475.40976	     382.54459	     475.40976
      36.56250	     382.56592	     482.46198	     382.56592	     482.46198
      36.79688	     382.93283	     476.07529	     382.93283	     476.07529
      37.03125	     385.65048	     479.73581	     385.65048	     479.73581
      37.26563	     389.98505	     491.08850	     389.98505	     491.08850
      37.50000	     386.15817	     481.12238	     386.15817	     481.12238
      37.73438	     380.62048	     477.95676	     380.62048	     477.95676
      37.96875	     385.47983	     480.01740	     385.47983	     480.01740
      38.20313	     376.04697	     475.29883	     376.04697	     475.29883
      38.43750	     384.48575	     480.80240	     384.48575	     480.80240
      38.67188	     389.23419	     484.73593	     389.23419	     484.73593
      38.90625	     387.04984	     480.48242	     387.04984	     480.48242
      39.14063	     386.28189	     481.94577	     386.28189	     481.94577
      39.37500	     384.82281	     482.39374	     384.82281	     482.39374
      39.60938	     388.03961	     484.01920	     388.03961	     484.01920
      39.84375	     380.83377	     475.95584	     380.83377	     475.95584
      40.07813	     384.89960	     480.51654	     384.89960	     480.51654
      40.31250	     389.48590	     484.80847	     389.48590	     484.80847
      40.54688	     383.93115	     481.60873	     383.93115	     481.60873
      40.78125	     381.28174	     481.59164	     381.28174	     481.59164
      41.01563	     381.10257	     480.02164	     381.10257	     480.02164
      41.25000	     381.15802	     476.17343	     381.15802	     476.17343
      41.48438	     382.54886	     482.35959	     382.54886	     482.35959
      41.71875	     385.84671	     483.46030	     385.84671	     483.46030
      41.95313	     387.11383	     484.43304	     387.11383	     484.43304
      42.18750	     380.61621	     476.16916	     380.61621	     476.16916
      42.42188	     381.21774	     477.69650	     381.21774	     477.69650
      42.65625	     381.01724	     476.27155	     381.01724	     476.27155
      42.89063	     387.19061	     482.22733	     387.19061	     482.22733
      43.12500	     388.94833	     484.44156	     388.94833	     484.44156
      43.35938	     388.16333	     484.60794	     388.16333	     484.60794
      43.59375	     379.14859	     475.86197	     379.14859	     475.86197
      43.82813	     383.01816	     479.69315	     383.01816	     479.69315
      44.06250	     386.66586	     484.13440	     386.66586	     484.13440
      44.29688	     385.02759	     482.52173	     385.02759	     482.52173
      44.53125	     384.20419	     481.99271	     384.20419	     481.99271
      44.76563	     386.37573	     484.71036	     386.37573	     484.71036
      45.00000	     386.01736	     480.41843	     386.01736	     480.41843
      45.23438	     380.33890	     479.72299	     380.33890	     479.72299
      45.46875	     380.39008	     476.03690	     380.39008	     476.03690
      45.70313	     381.22629	     478.53696	     381.22629	     478.53696
      45.93750	     382.97974	     477.23575	     382.97974	     477.23575
      46.17188	     388.65823	     486.06277	     388.65823	     486.06277
      46.40625	     384.05914	     484.00641	     384.05914	     484.00641
      46.64063	     384.25537	     479.83392	     384.25537	     479.83392
      46.87500	     387.45514	     485.51669	     387.45514	     485.51669
      47.10938	     383.36798	     478.76309	     383.36798	     478.76309
      47.34375	     382.54031	     480.22644	     382.54031	     480.22644
      47.57813	     385.16409	     478.01221	     385.16409	     478.01221
      47.81250	     386.79813	     482.98676	     386.79813	     482.98676
      48.04688	     382.67258	     479.54810	     382.67258	     479.54810
      48.28125	     385.82538	     485.20523	     385.82538	     485.20523
      48.51563	     382.68109	     476.78778	     382.68109	     476.78778
      48.75000	     380.01892	     476.10944	     380.01892	     476.10944
      48.98438	     376.93008	     473.16565	     376.93008	     473.16565
      49.21875	     385.69739	     481.05838	     385.69739	     481.05838
      49.45313	     388.44919	     488.56711	     388.44919	     488.56711
      49.68750	     392.17795	     488.23007	     392.17795	     488.23007
      49.92188	     386.36722	     483.45605	     386.36722	     483.45605
      50.15625	     381.03430	     473.35336	     381.03430	     473.35336
      50.39063	     384.18713	     481.04556	     384.18713	     481.04556
      50.62500	     389.39203	     486.28461	     389.39203	     486.28461
      50.85938	     383.07788	     479.45422	     383.07788	     479.45422
      51.09375	     385.80405	     481.60873	     385.80405	     481.60873
      51.32813	     380.36874	     480.81946	     380.36874	     480.81946
      51.56250	     390.71887	     488.60550	     390.71887	     488.60550
      51.79688	     390.02347	     487.02271	     390.02347	     487.02271
      52.03125	     385.95337	     483.20007	     385.95337	     483.20007
      52.26563	     381.75104	     478.86121	     381.75104	     478.86121
      52.50000	     389.95093	     483.59256	     389.95093	     483.59256
      52.73438	     388.09082	     484.78714	     388.09082	     484.78714
      52.96875	     387.32715	     484.63354	     387.32715	     484.63354
      53.20313	     376.53333	     476.64273	     376.53333	     476.64273
      53.43750	     382.73657	     478.68201	     382.73657	     478.68201
      53.67188	     384.10181	     482.53879	     384.10181	     482.53879
      53.90625	     392.81790	     487.64130	     392.81790	     487.64130
      54.14063	     385.44568	     482.93555	     385.44568	     482.93555
      54.37500	     388.93982	     483.34940	     388.93982	     483.34940
      54.60938	     380.75272	     480.73413	     380.75272	     480.73413
      54.84375	     385.10013	     478.78442	     385.10013	     478.78442
      55.07813	     384.98920	     482.64972	     384.98920	     482.64972
      55.31250	     386.02591	     485.96039	     386.02591	     485.96039
      55.54688	     384.64789	     482.99527	     384.64789	     482.99527
      55.78125	     385.98325	     485.49960	     385.98325	     485.49960
      56.01563	     391.09430	     487.34268	     391.09430	     487.34268
      56.25000	     384.75455	     480.67441	     384.75455	     480.67441
      56.48438	     383.68796	     480.92612	     383.68796	     480.92612
      56.71875	     386.24774	     481.06262	     386.24774	     481.06262
      56.95313	     383.87567	     480.05579	     383.87567	     480.05579
      57.18750	     385.78271	     482.38519	     385.78271	     482.38519
      57.42188	     385.85953	     484.48422	     385.85953	     484.48422
      57.65625	     390.77005	     484.94073	     390.77005	     484.94073
      57.89063	     380.74844	     480.28616	     380.74844	     480.28616
      58.12500	     386.13257	     485.06873	     386.13257	     485.06873
      58.35938	     384.79294	     480.93890	     384.79294	     480.93890
      58.59375	     383.15039	     479.68887	     383.15039	     479.68887
      58.82813	     391.74704	     491.20795	     391.74704	     491.20795
      59.06250	     382.14355	     479.63766	     382.14355	     479.63766
      59.29688	     385.09158	     481.49780	     385.09158	     481.49780
      59.53125	     385.92780	     482.90570	     385.92780	     482.90570

Monitor Diode	 452052.15
"StandardDeviation"
  3.12500E-006	  6.93500E-003
  6.25000E-006	  6.93501E-003
  9.37500E-006	  6.93497E-003
  1.25000E-005	  6.93505E-003
  1.56250E-005	  6.93501E-003
  1.87500E-005	  6.93506E-003
  2.18750E-005	  6.93496E-003
  2.50000E-005	  6.93500E-003
  2.81250E-005	  6.91818E-003
  3.12500E-005	  6.92275E-003
  3.43750E-005	  6.90877E-003
  3.75000E-005	  6.93470E-003
  4.06250E-005	  6.92094E-003
  4.37500E-005	  6.93495E-003
  4.68750E-005	  6.90408E-003
  5.00000E-005	  4.89936E-003
  5.62500E-005	  4.90009E-003
  6.25000E-005	  4.91173E-003
  6.87500E-005	  4.89316E-003
  7.50000E-005	  4.88961E-003
  8.12500E-005	  4.91266E-003
  8.75000E-005	  4.89027E-003
  9.37500E-005	  4.88123E-003
  1.00000E-004	  3.46897E-003
  1.12500E-004	  3.46736E-003
  1.25000E-004	  3.47194E-003
  1.37500E-004	  3.47005E-003
  1.50000E-004	  3.47095E-003
  1.62500E-004	  3.46711E-003
  1.75000E-004	  3.47209E-003
  1.87500E-004	  3.47517E-003
  2.00000E-004	  2.46886E-003
  2.25000E-004	  2.46788E-003
  2.50000E-004	  2.46906E-003
  2.75000E-004	  2.46904E-003
  3.00000E-004	  2.46843E-003
  3.25000E-004	  2.46616E-003
  3.50000E-004	  2.46678E-003
  3.75000E-004	  2.46976E-003
  4.00000E-004	  1.76989E-003
  4.50000E-004	  1.76834E-003
  5.00000E-004	  1.76728E-003
  5.50000E-004	  1.76709E-003
  6.00000E-004	  1.76576E-003
  6.50000E-004	  1.76595E-003
  7.00000E-004	  1.76373E-003
  7.50000E-004	  1.76430E-003
  8.00000E-004	  1.28172E-003
  9.00000E-004	  1.28062E-003
  1.00000E-003	  1.27989E-003
  1.10000E-003	  1.27932E-003
  1.20000E-003	  1.27848E-003
  1.30000E-003	  1.27745E-003
  1.40000E-003	  1.27726E-003
  1.50000E-003	  1.27607E-003
  1.60000E-003	  9.47072E-004
  1.80000E-003	  9.46005E-004
  2.00000E-003	  9.44497E-004
  2.20000E-003	  9.43192E-004
  2.40000E-003	  9.41752E-004
  2.60000E-003	  9.40566E-004
  2.80000E-003	  9.39611E-004
  3.00000E-003	  9.38620E-004
  3.20000E-003	  7.21163E-004
  3.60000E-003	  7.18850E-004
  4.00000E-003	  7.16871E-004
  4.40000E-003	  7.14873E-004
  4.80000E-003	  7.12735E-004
  5.20000E-003	  7.10710E-004
  5.60000E-003	  7.08676E-004
  6.00000E-003	  7.06860E-004
  6.40000E-003	  5.68598E-004
  7.20000E-003	  5.64709E-004
  8.00000E-003	  5.61321E-004
  8.80000E-003	  5.57941E-004
  9.60000E-003	  5.54676E-004
  1.04000E-002	  5.51390E-004
  1.12000E-002	  5.48233E-004
  1.20000E-002	  5.45108E-004
  1.28000E-002	  4.59803E-004
  1.44000E-002	  4.53632E-004
  1.60000E-002	  4.48212E-004
  1.76000E-002	  4.43036E-004
  1.92000E-002	  4.38119E-004
  2.08000E-002	  4.33477E-004
  2.24000E-002	  4.29108E-004
  2.40000E-002	  4.24952E-004
  2.56000E-002	  3.71661E-004
  2.88000E-002	  3.63971E-004
  3.20000E-002	  3.57467E-004
  3.52000E-002	  3.51703E-004
  3.84000E-002	  3.46570E-004
  4.16000E-002	  3.42077E-004
  4.48000E-002	  3.38280E-004
  4.80000E-002	  3.35039E-004
  5.12000E-002	  3.01498E-004
  5.76000E-002	  2.96361E-004
  6.40000E-002	  2.92588E-004
  7.04000E-002	  2.89711E-004
  7.68000E-002	  2.81800E-004
  8.32000E-002	  2.81800E-004
  8.96000E-002	  2.81800E-004
  9.60000E-002	  2.81800E-004
  1.02400E-001	  2.59154E-004
  1.15200E-001	  2.59154E-004
  1.28000E-001	  2.59154E-004
  1.40800E-001	  2.59154E-004
  1.53600E-001	  2.59154E-004
  1.66400E-001	  2.59154E-004
  1.79200E-001	  2.59154E-004
  1.92000E-001	  2.59154E-004
  2.04800E-001	  2.35004E-004
  2.30400E-001	  2.35004E-004
  2.56000E-001	  2.35004E-004
  2.81600E-001	  2.35004E-004
  3.07200E-001	  2.35004E-004
  3.32800E-001	  2.35004E-004
  3.58400E-001	  2.35004E-004
  3.84000E-001	  2.35004E-004
  4.09600E-001	  2.04280E-004
  4.60800E-001	  2.04280E-004
  5.12000E-001	  2.04280E-004
  5.63200E-001	  2.04280E-004
  6.14400E-001	  2.04280E-004
  6.65600E-001	  2.04280E-004
  7.16800E-001	  2.04280E-004
  7.68000E-001	  2.04280E-004
  8.19200E-001	  1.71864E-004
  9.21600E-001	  1.71864E-004
  1.02400E+000	  1.71864E-004
  1.12640E+000	  1.71864E-004
  1.22880E+000	  1.71864E-004
  1.33120E+000	  1.71864E-004
  1.43360E+000	  1.71864E-004
  1.53600E+000	  1.71864E-004
  1.63840E+000	  1.33444E-004
  1.84320E+000	  1.33444E-004
  2.04800E+000	  1.33444E-004
  2.25280E+000	  1.33444E-004
  2.45760E+000	  1.33444E-004
  2.66240E+000	  1.33444E-004
  2.86720E+000	  1.33444E-004
  3.07200E+000	  1.33444E-004
  3.27680E+000	  9.88221E-005
  3.68640E+000	  9.88221E-005
  4.09600E+000	  9.88221E-005
  4.50560E+000	  9.88221E-005
  4.91520E+000	  9.88221E-005
  5.32480E+000	  9.88221E-005
  5.73440E+000	  9.88221E-005
  6.14400E+000	  9.88221E-005
  6.55360E+000	  7.14590E-005
  7.37280E+000	  7.14590E-005
  8.19200E+000	  7.14590E-005
  9.01120E+000	  7.14590E-005
  9.83040E+000	  7.14590E-005
  1.06496E+001	  7.14590E-005
  1.14688E+001	  7.14590E-005
  1.22880E+001	  7.14590E-005
  1.31072E+001	  5.10881E-005
  1.47456E+001	  5.10881E-005
  1.63840E+001	  5.10881E-005
  1.80224E+001	  5.10881E-005
  1.96608E+001	  5.10881E-005
  2.12992E+001	  5.10881E-005
  2.29376E+001	  5.10881E-005
  2.45760E+001	  5.10881E-005
  2.62144E+001	  3.63224E-005
  2.94912E+001	  3.63224E-005
  3.27680E+001	  3.63224E-005
  3.60448E+001	  3.63224E-005
  3.93216E+001	  3.63224E-005
  4.25984E+001	  3.63224E-005
  4.58752E+001	  3.63224E-005
  4.91520E+001	  3.63224E-005
  5.24288E+001	  2.57536E-005
  5.89824E+001	  2.57536E-005
  6.55360E+001	  2.57536E-005
  7.20896E+001	  2.57536E-005
  7.86432E+001	  2.57536E-005
  8.51968E+001	  2.57536E-005
  9.17504E+001	  2.57536E-005
  9.83040E+001	  2.57536E-005
  1.04858E+002	  1.82352E-005
  1.17965E+002	  1.82352E-005
  1.31072E+002	  1.82352E-005
  1.44179E+002	  1.82352E-005
  1.57286E+002	  1.82352E-005
  1.70394E+002	  1.82352E-005
  1.83501E+002	  1.82352E-005
  1.96608E+002	  1.82352E-005
  2.09715E+002	  1.29028E-005
  2.35930E+002	  1.29028E-005
  2.62144E+002	  1.29028E-005
  2.88358E+002	  1.29028E-005
  3.14573E+002	  1.29028E-005
  3.40787E+002	  1.29028E-005
  3.67002E+002	  1.29028E-005
  3.93216E+002	  1.29028E-005
  4.19430E+002	  9.12659E-006
  4.71859E+002	  9.12659E-006
  5.24288E+002	  9.12659E-006
  5.76717E+002	  9.12659E-006
  6.29146E+002	  9.12659E-006
  6.81574E+002	  9.12659E-006
  7.34003E+002	  9.12659E-006
  7.86432E+002	  9.12659E-006
  8.38861E+002	  6.45432E-006
  9.43718E+002	  6.45432E-006
  1.04858E+003	  6.45432E-006
  1.15343E+003	  6.45432E-006
  1.25829E+003	  6.45432E-006
  1.36315E+003	  6.45432E-006
  1.46801E+003	  6.45432E-006
  1.57286E+003	  6.45432E-006
  1.67772E+003	  4.56393E-006
  1.88744E+003	  4.56393E-006
  2.09715E+003	  4.56393E-006
  2.30687E+003	  4.56393E-006
  2.51658E+003	  4.56393E-006
  2.72630E+003	  4.56393E-006
  2.93601E+003	  4.56393E-006
  3.14573E+003	  4.56393E-006
  3.35544E+003	  3.22682E-006
  3.77487E+003	  3.22682E-006
  4.19430E+003	  3.22682E-006
  4.61373E+003	  3.22682E-006
  5.03317E+003	  3.22682E-006
  5.45260E+003	  3.22682E-006
  5.87203E+003	  3.22682E-006
  6.29146E+003	  3.22682E-006
  6.71089E+003	  2.28106E-006
  7.54975E+003	  2.28106E-006
  8.38861E+003	  2.28106E-006
  9.22747E+003	  2.28106E-006
  1.00663E+004	  2.28106E-006
  1.09052E+004	  2.28106E-006
  1.17441E+004	  2.28106E-006
