ALV-7004 or ALV-7004/FAST Data
Date :	"3/28/2010"
Time :	"12:30:47 PM"
Samplename : 	"BSA 15 g/l in 8.3 mM YCl3"
SampMemo(0) : 	""
SampMemo(1) : 	""
SampMemo(2) : 	""
SampMemo(3) : 	""
SampMemo(4) : 	""
SampMemo(5) : 	""
SampMemo(6) : 	""
SampMemo(7) : 	""
SampMemo(8) : 	""
SampMemo(9) : 	""
Temperature [K] :	     295.63353
Viscosity [cp]  :	       0.94368
Refractive Index:	       1.33200
Wavelength [nm] :	     632.80000
Angle [°]       :	     110.00000
Duration [s]    :	        60
Runs            :	         1
Mode            :	"C-CH0/1+1/0"
MeanCR0 [kHz]   :	     313.56313
MeanCR1 [kHz]   :	     392.81866
MeanCR2 [kHz]   :	       0.00000
MeanCR3 [kHz]   :	       0.00000

"Correlation"
  3.12500E-006	  6.62121E-001	  6.46371E-001	 -2.00000E+000	 -2.00000E+000
  6.25000E-006	  6.32440E-001	  6.09596E-001	 -2.00000E+000	 -2.00000E+000
  9.37500E-006	  6.56521E-001	  6.57629E-001	 -2.00000E+000	 -2.00000E+000
  1.25000E-005	  6.35616E-001	  6.19897E-001	 -2.00000E+000	 -2.00000E+000
  1.56250E-005	  6.86139E-001	  6.80612E-001	 -2.00000E+000	 -2.00000E+000
  1.87500E-005	  6.80701E-001	  7.02620E-001	 -2.00000E+000	 -2.00000E+000
  2.18750E-005	  6.58081E-001	  6.58849E-001	 -2.00000E+000	 -2.00000E+000
  2.50000E-005	  6.71290E-001	  6.68023E-001	 -2.00000E+000	 -2.00000E+000
  2.81250E-005	  6.54436E-001	  6.56433E-001	 -2.00000E+000	 -2.00000E+000
  3.12500E-005	  6.65891E-001	  6.52595E-001	 -2.00000E+000	 -2.00000E+000
  3.43750E-005	  6.58051E-001	  6.46302E-001	 -2.00000E+000	 -1.99993E+000
  3.75000E-005	  6.67016E-001	  6.45483E-001	 -2.00000E+000	 -2.00000E+000
  4.06250E-005	  6.75681E-001	  6.85719E-001	 -2.00000E+000	  8.53331E-001
  4.37500E-005	  6.71104E-001	  6.80078E-001	 -2.00000E+000	  1.02802E+000
  4.68750E-005	  6.71177E-001	  6.46708E-001	 -2.00000E+000	 -5.91749E-001
  5.00000E-005	  6.72089E-001	  6.76802E-001	 -2.00000E+000	  1.79816E+000
  5.62500E-005	  6.59551E-001	  6.46496E-001	 -2.00000E+000	  8.71254E-001
  6.25000E-005	  6.79654E-001	  6.73590E-001	 -2.00000E+000	  8.95331E-001
  6.87500E-005	  6.61341E-001	  6.60035E-001	 -1.94526E+000	  1.02726E+000
  7.50000E-005	  6.57404E-001	  6.44178E-001	  1.63627E+000	  6.88683E-001
  8.12500E-005	  6.81266E-001	  6.67352E-001	  9.18688E-001	  7.26988E-001
  8.75000E-005	  6.60490E-001	  6.56700E-001	  9.24007E-001	  7.08691E-001
  9.37500E-005	  6.55941E-001	  6.58013E-001	  8.68181E-001	  7.29504E-001
  1.00000E-004	  6.54074E-001	  6.60654E-001	  7.68748E-001	  6.85804E-001
  1.12500E-004	  6.61748E-001	  6.64541E-001	  7.75858E-001	  7.11507E-001
  1.25000E-004	  6.67557E-001	  6.68492E-001	  7.16515E-001	  7.11290E-001
  1.37500E-004	  6.58904E-001	  6.54271E-001	  6.72853E-001	  7.00620E-001
  1.50000E-004	  6.55012E-001	  6.57794E-001	  6.74471E-001	  6.95899E-001
  1.62500E-004	  6.53786E-001	  6.55541E-001	  6.54579E-001	  6.96986E-001
  1.75000E-004	  6.60328E-001	  6.59482E-001	  6.46066E-001	  6.83999E-001
  1.87500E-004	  6.61110E-001	  6.61818E-001	  6.60484E-001	  6.84968E-001
  2.00000E-004	  6.66988E-001	  6.63874E-001	  6.58884E-001	  6.87190E-001
  2.25000E-004	  6.62945E-001	  6.59210E-001	  6.61251E-001	  6.91494E-001
  2.50000E-004	  6.57659E-001	  6.55574E-001	  6.56829E-001	  6.88025E-001
  2.75000E-004	  6.54115E-001	  6.48432E-001	  6.55230E-001	  6.75799E-001
  3.00000E-004	  6.54492E-001	  6.50548E-001	  6.49425E-001	  6.82281E-001
  3.25000E-004	  6.55367E-001	  6.51556E-001	  6.59367E-001	  6.87359E-001
  3.50000E-004	  6.54025E-001	  6.52676E-001	  6.49895E-001	  6.73199E-001
  3.75000E-004	  6.59113E-001	  6.55582E-001	  6.61510E-001	  6.76756E-001
  4.00000E-004	  6.54734E-001	  6.53081E-001	  6.55946E-001	  6.72934E-001
  4.50000E-004	  6.56183E-001	  6.54183E-001	  6.57331E-001	  6.74460E-001
  5.00000E-004	  6.53615E-001	  6.50753E-001	  6.59125E-001	  6.74272E-001
  5.50000E-004	  6.51157E-001	  6.51823E-001	  6.47262E-001	  6.66174E-001
  6.00000E-004	  6.52326E-001	  6.49714E-001	  6.49367E-001	  6.67338E-001
  6.50000E-004	  6.48827E-001	  6.46437E-001	  6.53554E-001	  6.67263E-001
  7.00000E-004	  6.47324E-001	  6.48407E-001	  6.50889E-001	  6.68127E-001
  7.50000E-004	  6.45995E-001	  6.45623E-001	  6.45985E-001	  6.64232E-001
  8.00000E-004	  6.44156E-001	  6.44039E-001	  6.46903E-001	  6.65328E-001
  9.00000E-004	  6.42352E-001	  6.41218E-001	  6.46739E-001	  6.60334E-001
  1.00000E-003	  6.38758E-001	  6.38639E-001	  6.42605E-001	  6.58269E-001
  1.10000E-003	  6.36967E-001	  6.36490E-001	  6.41077E-001	  6.56677E-001
  1.20000E-003	  6.33903E-001	  6.33311E-001	  6.40882E-001	  6.50799E-001
  1.30000E-003	  6.27844E-001	  6.27278E-001	  6.35216E-001	  6.47105E-001
  1.40000E-003	  6.29449E-001	  6.26547E-001	  6.31760E-001	  6.46958E-001
  1.50000E-003	  6.26313E-001	  6.28299E-001	  6.29306E-001	  6.40920E-001
  1.60000E-003	  6.24573E-001	  6.26059E-001	  6.25438E-001	  6.38574E-001
  1.80000E-003	  6.16548E-001	  6.14842E-001	  6.21476E-001	  6.33835E-001
  2.00000E-003	  6.14258E-001	  6.14211E-001	  6.13605E-001	  6.28919E-001
  2.20000E-003	  6.06817E-001	  6.06436E-001	  6.10501E-001	  6.24771E-001
  2.40000E-003	  6.01590E-001	  6.01271E-001	  6.04975E-001	  6.18780E-001
  2.60000E-003	  5.98156E-001	  5.99059E-001	  6.02587E-001	  6.13072E-001
  2.80000E-003	  5.91544E-001	  5.91943E-001	  6.00841E-001	  6.10474E-001
  3.00000E-003	  5.87578E-001	  5.85945E-001	  5.91533E-001	  6.02887E-001
  3.20000E-003	  5.83056E-001	  5.82171E-001	  5.87781E-001	  5.97472E-001
  3.60000E-003	  5.74181E-001	  5.74081E-001	  5.81754E-001	  5.87615E-001
  4.00000E-003	  5.63619E-001	  5.63219E-001	  5.70830E-001	  5.79214E-001
  4.40000E-003	  5.55359E-001	  5.55191E-001	  5.61049E-001	  5.68169E-001
  4.80000E-003	  5.47262E-001	  5.46373E-001	  5.52809E-001	  5.60332E-001
  5.20000E-003	  5.38024E-001	  5.37400E-001	  5.41272E-001	  5.51739E-001
  5.60000E-003	  5.29717E-001	  5.29655E-001	  5.33789E-001	  5.43218E-001
  6.00000E-003	  5.19900E-001	  5.19313E-001	  5.26768E-001	  5.35588E-001
  6.40000E-003	  5.12699E-001	  5.12598E-001	  5.18401E-001	  5.25963E-001
  7.20000E-003	  4.95885E-001	  4.95261E-001	  5.01229E-001	  5.08707E-001
  8.00000E-003	  4.80734E-001	  4.79760E-001	  4.84211E-001	  4.92439E-001
  8.80000E-003	  4.64977E-001	  4.64359E-001	  4.68972E-001	  4.76743E-001
  9.60000E-003	  4.50120E-001	  4.50103E-001	  4.55808E-001	  4.62014E-001
  1.04000E-002	  4.36183E-001	  4.35822E-001	  4.41088E-001	  4.46188E-001
  1.12000E-002	  4.21524E-001	  4.21909E-001	  4.26399E-001	  4.32401E-001
  1.20000E-002	  4.08512E-001	  4.08302E-001	  4.12669E-001	  4.19184E-001
  1.28000E-002	  3.95884E-001	  3.95778E-001	  4.00055E-001	  4.06149E-001
  1.44000E-002	  3.71414E-001	  3.71094E-001	  3.75650E-001	  3.80595E-001
  1.60000E-002	  3.48421E-001	  3.48503E-001	  3.52233E-001	  3.56906E-001
  1.76000E-002	  3.26429E-001	  3.26577E-001	  3.29469E-001	  3.34262E-001
  1.92000E-002	  3.06241E-001	  3.06133E-001	  3.09717E-001	  3.14079E-001
  2.08000E-002	  2.87304E-001	  2.87237E-001	  2.90563E-001	  2.94665E-001
  2.24000E-002	  2.69441E-001	  2.69585E-001	  2.72464E-001	  2.75792E-001
  2.40000E-002	  2.52813E-001	  2.52840E-001	  2.55323E-001	  2.59304E-001
  2.56000E-002	  2.37373E-001	  2.37086E-001	  2.39865E-001	  2.43332E-001
  2.88000E-002	  2.09113E-001	  2.09434E-001	  2.10938E-001	  2.14536E-001
  3.20000E-002	  1.84204E-001	  1.84097E-001	  1.85917E-001	  1.88968E-001
  3.52000E-002	  1.62138E-001	  1.62307E-001	  1.63961E-001	  1.66881E-001
  3.84000E-002	  1.43661E-001	  1.43906E-001	  1.44219E-001	  1.47053E-001
  4.16000E-002	  1.26409E-001	  1.26512E-001	  1.27289E-001	  1.30124E-001
  4.48000E-002	  1.11817E-001	  1.11907E-001	  1.12141E-001	  1.14717E-001
  4.80000E-002	  9.82807E-002	  9.85055E-002	  9.92383E-002	  1.01295E-001
  5.12000E-002	  8.72176E-002	  8.72562E-002	  8.75569E-002	  8.97246E-002
  5.76000E-002	  6.84537E-002	  6.85608E-002	  6.87356E-002	  7.05995E-002
  6.40000E-002	  5.37781E-002	  5.39581E-002	  5.37019E-002	  5.55457E-002
  7.04000E-002	  4.19390E-002	  4.22029E-002	  4.21255E-002	  4.34712E-002
  7.68000E-002	  3.30950E-002	  3.31434E-002	  3.33634E-002	  3.41008E-002
  8.32000E-002	  2.58004E-002	  2.61119E-002	  2.60410E-002	  2.68777E-002
  8.96000E-002	  2.04486E-002	  2.07027E-002	  1.99425E-002	  2.12257E-002
  9.60000E-002	  1.58185E-002	  1.58857E-002	  1.55594E-002	  1.66191E-002
  1.02400E-001	  1.28261E-002	  1.30698E-002	  1.26489E-002	  1.34520E-002
  1.15200E-001	  8.11905E-003	  8.31531E-003	  8.40667E-003	  8.42112E-003
  1.28000E-001	  5.77048E-003	  5.81902E-003	  5.53770E-003	  5.89262E-003
  1.40800E-001	  3.92018E-003	  4.01304E-003	  3.82391E-003	  4.07913E-003
  1.53600E-001	  2.78563E-003	  2.73894E-003	  2.60990E-003	  2.99920E-003
  1.66400E-001	  2.17642E-003	  2.32345E-003	  2.12553E-003	  2.22662E-003
  1.79200E-001	  9.39527E-004	  1.06801E-003	  1.12610E-003	  1.11197E-003
  1.92000E-001	  6.72223E-004	  8.65088E-004	  6.34668E-004	  8.59717E-004
  2.04800E-001	  5.67058E-004	  5.91284E-004	  5.55946E-004	  5.28473E-004
  2.30400E-001	  5.81229E-004	  1.44049E-004	  6.20576E-004	  4.77221E-004
  2.56000E-001	  8.76370E-004	  6.53395E-004	  1.00194E-003	  5.83698E-004
  2.81600E-001	  8.58054E-004	  7.98674E-004	  8.35977E-004	  7.02579E-004
  3.07200E-001	  4.60130E-004	  4.05541E-004	  2.87415E-004	  4.96388E-004
  3.32800E-001	  2.21962E-004	  1.89883E-004	  1.57970E-004	  3.91142E-004
  3.58400E-001	  3.48961E-004	  6.52729E-004	  2.31103E-004	  5.46544E-004
  3.84000E-001	  5.42450E-004	  7.44431E-004	  5.78978E-004	  5.27056E-004
  4.09600E-001	  5.65493E-005	  1.69721E-004	 -9.48643E-006	  1.65101E-004
  4.60800E-001	  4.76658E-004	  3.50324E-004	  5.17919E-004	  3.20742E-004
  5.12000E-001	  2.77062E-004	  3.06579E-004	  3.26290E-004	  3.30037E-004
  5.63200E-001	  2.34408E-004	 -2.93637E-006	  6.80387E-004	  1.54390E-004
  6.14400E-001	  1.06094E-004	  3.14424E-005	 -1.36837E-004	  4.73913E-004
  6.65600E-001	  3.33066E-004	  5.55438E-004	  8.60284E-005	  3.30918E-004
  7.16800E-001	  7.00641E-004	  9.38870E-004	  8.08973E-004	  4.60738E-004
  7.68000E-001	  1.11340E-004	  1.61815E-004	 -6.39452E-005	  7.66882E-005
  8.19200E-001	 -8.50010E-005	 -1.98776E-004	 -3.25105E-004	 -1.76006E-004
  9.21600E-001	 -1.97514E-005	  1.45973E-005	  8.44997E-005	 -1.70504E-004
  1.02400E+000	 -8.51529E-005	  6.69507E-006	 -4.38866E-005	 -1.38750E-004
  1.12640E+000	  3.62667E-004	  3.10357E-004	  3.20719E-004	  3.06564E-004
  1.22880E+000	  2.67734E-004	  4.27886E-004	  2.73043E-004	  2.27509E-004
  1.33120E+000	  8.35214E-005	  1.21626E-004	  2.00972E-004	  1.14133E-004
  1.43360E+000	  1.02352E-004	  2.29679E-004	 -9.19919E-005	  2.81993E-004
  1.53600E+000	  3.01900E-004	  4.24371E-004	  3.37977E-004	  2.22823E-004
  1.63840E+000	  2.72010E-004	  3.74878E-004	  5.86383E-004	  1.03925E-004
  1.84320E+000	  2.22234E-005	  1.39686E-005	 -4.52693E-005	  9.95523E-005
  2.04800E+000	 -4.41394E-005	 -2.60818E-004	  4.79635E-005	  7.29991E-006
  2.25280E+000	 -3.77934E-005	 -5.55210E-005	  1.12010E-004	 -1.41327E-004
  2.45760E+000	  3.44207E-004	  3.75340E-004	  3.20426E-004	  4.35325E-004
  2.66240E+000	 -5.52801E-005	 -5.21657E-005	 -4.46426E-005	  2.34677E-005
  2.86720E+000	  1.11546E-004	  5.72236E-005	 -5.13653E-005	  1.91840E-004
  3.07200E+000	  1.06696E-004	 -8.59972E-005	  1.91141E-004	  8.00833E-005
  3.27680E+000	 -4.04928E-005	 -1.00906E-004	 -2.46064E-005	 -6.79528E-005
  3.68640E+000	 -4.66517E-004	 -4.40680E-004	 -4.72901E-004	 -4.88901E-004
  4.09600E+000	 -1.68500E-005	 -9.86384E-005	 -2.08739E-005	 -6.18218E-005
  4.50560E+000	  9.92871E-005	  1.52042E-004	  1.11738E-004	  3.87299E-005
  4.91520E+000	  1.12056E-005	  8.37796E-006	 -1.57750E-005	 -4.54833E-006
  5.32480E+000	 -9.99792E-005	 -4.62164E-005	 -2.14224E-004	 -8.97730E-005
  5.73440E+000	 -9.18427E-006	  1.31575E-004	 -3.19811E-005	  9.84826E-005
  6.14400E+000	 -1.99867E-004	 -1.94926E-004	 -1.69772E-004	 -2.33845E-004
  6.55360E+000	  5.43458E-005	  1.62230E-004	  1.31955E-004	 -2.27985E-005
  7.37280E+000	  1.09733E-004	  1.01772E-004	  5.68471E-005	  1.16628E-004
  8.19200E+000	 -6.56299E-005	 -1.09753E-004	 -1.66528E-004	 -5.63044E-005
  9.01120E+000	 -1.37680E-005	  4.79443E-005	 -5.84770E-005	  1.73734E-005
  9.83040E+000	  7.65460E-005	  6.58089E-005	  1.24214E-004	  5.37154E-005
  1.06496E+001	  2.75397E-004	  3.69182E-004	  3.46028E-004	  1.72098E-004
  1.14688E+001	  6.34092E-005	  1.02053E-006	  6.41838E-005	  1.26538E-004
  1.22880E+001	 -4.56193E-005	 -5.11043E-005	 -6.24868E-005	 -5.37503E-005
  1.31072E+001	 -9.81387E-005	 -5.08859E-005	 -1.00682E-004	 -1.10402E-004
  1.47456E+001	 -4.45847E-005	 -5.08775E-005	 -2.15711E-005	 -7.55235E-005
  1.63840E+001	 -3.25114E-005	 -4.23523E-005	 -2.97897E-005	 -4.66758E-005
  1.80224E+001	 -1.92265E-005	 -3.31947E-005	 -2.92391E-006	 -2.08747E-006
  1.96608E+001	  1.15075E-004	  9.24291E-005	  1.32787E-004	  5.95956E-005
  2.12992E+001	  5.09954E-005	 -1.92930E-005	  7.07113E-005	  4.05769E-005
  2.29376E+001	  1.99123E-005	  4.22400E-005	  2.79798E-005	  3.53012E-005
  2.45760E+001	  6.01680E-005	  7.81836E-005	  4.98241E-005	  8.99064E-005
  2.62144E+001	  3.48964E-005	  6.59883E-005	  5.62949E-005	  3.22895E-005
  2.94912E+001	 -6.06809E-005	 -4.79029E-005	 -5.71803E-005	 -5.46146E-005
  3.27680E+001	 -9.14151E-006	 -3.74111E-006	 -1.34828E-005	 -1.66515E-005
  3.60448E+001	 -8.38049E-005	 -9.26393E-005	 -5.44728E-005	 -8.96538E-005
  3.93216E+001	  7.53081E-005	  6.23266E-005	  8.96459E-005	  5.40479E-005
  4.25984E+001	  4.28278E-005	  6.67654E-005	  1.79595E-005	  6.95929E-005
  4.58752E+001	  4.81682E-005	  6.73398E-005	  4.47261E-005	  4.78841E-005
  4.91520E+001	 -1.38505E-004	 -1.77097E-004	 -1.48845E-004	 -1.25617E-004
  5.24288E+001	  3.51159E-005	  3.56218E-005	  1.44438E-005	  2.72907E-005
  5.89824E+001	 -6.92432E-005	 -8.48954E-005	 -5.04749E-005	 -1.06232E-004
  6.55360E+001	 -1.82060E-005	 -1.90301E-005	 -2.21980E-005	  6.05527E-006
  7.20896E+001	  1.38318E-005	  3.50984E-005	  5.02364E-005	  2.42218E-006
  7.86432E+001	  3.47915E-005	  4.14413E-005	  1.16995E-005	  5.59290E-005
  8.51968E+001	  4.87914E-005	  3.76003E-005	  5.75153E-005	  3.12265E-005
  9.17504E+001	 -1.64479E-006	 -1.11794E-005	  1.92357E-005	 -4.47392E-005
  9.83040E+001	 -1.97319E-005	 -3.16738E-005	  1.28760E-005	 -6.07525E-005
  1.04858E+002	  6.16673E-005	  5.17422E-005	  7.47820E-005	  5.06074E-005
  1.17965E+002	  3.87480E-005	  2.93575E-005	  1.21599E-005	  6.00075E-005
  1.31072E+002	 -1.64813E-005	 -1.79113E-005	  1.25198E-005	 -3.60662E-005
  1.44179E+002	  3.99463E-006	 -5.89601E-006	  1.94197E-005	  2.08864E-006
  1.57286E+002	  5.03360E-005	  3.01140E-005	  6.96988E-005	  4.03637E-005
  1.70394E+002	  2.17483E-005	  4.60003E-005	  5.44962E-005	  1.84314E-006
  1.83501E+002	 -2.29891E-005	 -1.91825E-005	 -2.64459E-005	 -1.99933E-005
  1.96608E+002	  3.08963E-005	  2.77869E-005	  5.53817E-005	  1.49168E-005
  2.09715E+002	  8.20678E-006	  1.04408E-005	  1.67017E-005	  1.40520E-006
  2.35930E+002	  1.60407E-005	  8.17575E-006	  9.89478E-006	  2.51155E-005
  2.62144E+002	  1.73057E-005	  8.87999E-006	  2.14458E-005	  8.27410E-006
  2.88358E+002	 -2.62252E-006	 -6.91633E-006	  1.78320E-006	 -5.65479E-007
  3.14573E+002	 -2.21097E-005	 -1.32312E-005	 -7.62706E-006	 -4.10170E-005
  3.40787E+002	 -1.27505E-005	 -1.62315E-007	  2.29354E-006	 -1.17305E-005
  3.67002E+002	  2.69764E-005	  2.22563E-005	  9.46260E-006	  4.25187E-005
  3.93216E+002	  2.16879E-005	  2.13808E-005	  4.16000E-005	  7.94621E-006
  4.19430E+002	  7.94743E-006	  9.05856E-006	  1.81703E-005	 -7.63098E-006
  4.71859E+002	  4.40624E-006	  1.11172E-005	  1.30180E-005	 -1.51270E-006
  5.24288E+002	 -5.58865E-006	 -8.74769E-006	  3.01812E-006	 -1.88197E-005
  5.76717E+002	  2.02212E-006	 -7.51709E-006	 -1.02696E-006	  1.93804E-007
  6.29146E+002	 -1.11125E-006	 -1.14343E-005	  7.57856E-006	 -8.99145E-006
  6.81574E+002	  5.79043E-006	  9.94990E-006	  8.37774E-006	  3.32748E-008
  7.34003E+002	 -2.93233E-005	 -3.38678E-005	 -3.76163E-005	 -2.84335E-005
  7.86432E+002	 -2.59118E-006	 -1.08267E-006	 -1.12107E-005	  3.71226E-006
  8.38861E+002	 -8.08375E-006	 -9.33871E-006	 -1.84229E-005	  9.15806E-007
  9.43718E+002	  6.66432E-006	  1.31358E-006	  3.14671E-006	  1.54393E-005
  1.04858E+003	 -4.72806E-006	 -2.65421E-006	 -1.84001E-005	  4.20017E-006
  1.15343E+003	 -1.14399E-005	 -7.93633E-006	 -8.48368E-006	 -1.41952E-005
  1.25829E+003	 -5.48074E-006	 -4.86680E-006	 -7.54689E-006	 -2.38831E-006
  1.36315E+003	  8.38848E-006	  1.83074E-005	  2.84119E-006	  1.18316E-005
  1.46801E+003	 -6.75524E-006	 -1.00341E-005	 -5.02525E-006	 -5.58139E-006
  1.57286E+003	 -7.84830E-006	 -6.92380E-006	 -6.75833E-006	 -8.25746E-006
  1.67772E+003	  2.24561E-006	  3.30058E-007	  2.00625E-006	  1.47968E-006
  1.88744E+003	  1.42012E-005	  1.23367E-005	  1.50554E-005	  1.31183E-005
  2.09715E+003	 -9.60850E-007	 -2.03051E-006	  2.84781E-006	 -2.81188E-006
  2.30687E+003	 -4.75461E-006	 -5.93347E-006	  7.30071E-007	 -7.55627E-006
  2.51658E+003	  2.48893E-006	  2.80958E-006	  7.84457E-007	  5.48148E-006
  2.72630E+003	  1.77503E-005	  1.54877E-005	  1.90864E-005	  1.58823E-005
  2.93601E+003	  9.20001E-006	  1.23969E-005	  1.04072E-005	  1.18943E-005
  3.14573E+003	  1.11232E-006	 -4.25692E-006	 -4.36316E-006	  7.64339E-006
  3.35544E+003	 -9.13446E-006	 -8.72419E-006	 -1.63476E-005	 -2.55575E-006
  3.77487E+003	 -1.36293E-005	 -1.05730E-005	 -1.30475E-005	 -1.44363E-005
  4.19430E+003	  2.27528E-006	  1.05463E-006	  6.75505E-007	  5.37874E-006
  4.61373E+003	  2.71813E-006	  2.21185E-006	  5.22245E-006	  3.80361E-006
  5.03317E+003	 -5.91577E-006	 -7.68349E-006	 -4.39463E-006	 -8.26248E-006
  5.45260E+003	 -4.40311E-006	  2.45044E-006	 -1.22227E-005	  1.30685E-006
  5.87203E+003	 -4.47081E-006	 -4.36081E-006	 -5.32568E-006	 -3.40418E-006
  6.29146E+003	 -2.00385E-006	  3.29844E-007	 -1.45725E-006	 -2.66428E-006
  6.71089E+003	  3.61145E-006	  6.76867E-006	  7.02570E-006	  1.69728E-006
  7.54975E+003	  2.04797E-006	  3.62458E-006	  1.29497E-006	  2.21324E-006
  8.38861E+003	 -4.46183E-006	 -5.19911E-006	 -3.84916E-006	 -3.82126E-006
  9.22747E+003	  7.78647E-007	  1.63684E-006	  3.47045E-006	  2.27102E-007
  1.00663E+004	 -1.67704E-005	 -1.71035E-005	 -2.13425E-005	 -1.23632E-005
  1.09052E+004	 -9.65752E-006	 -9.05066E-006	 -7.43924E-006	 -9.57494E-006
  1.17441E+004	 -2.64857E-006	 -3.01121E-006	 -2.87490E-006	 -2.50458E-006

"Count Rate"
       0.23438	     307.56387	     387.18634	     307.56387	     387.18634
       0.46875	     314.97449	     395.59955	     314.97449	     395.59955
       0.70313	     314.94461	     397.60898	     314.94461	     397.60898
       0.93750	     308.11850	     388.20599	     308.11850	     388.20599
       1.17188	     311.99231	     391.50388	     311.99231	     391.50388
       1.40625	     311.46329	     392.73257	     311.46329	     392.73257
       1.64063	     314.11694	     390.82980	     314.11694	     390.82980
       1.87500	     313.46848	     391.08578	     313.46848	     391.08578
       2.10938	     311.07504	     389.18726	     311.07504	     389.18726
       2.34375	     313.05463	     393.44080	     313.05463	     393.44080
       2.57813	     312.61948	     393.15067	     312.61948	     393.15067
       2.81250	     314.52225	     393.66263	     314.52225	     393.66263
       3.04688	     315.47791	     394.51590	     315.47791	     394.51590
       3.28125	     315.66989	     394.83160	     315.66989	     394.83160
       3.51563	     312.55972	     394.31537	     312.55972	     394.31537
       3.75000	     312.86691	     395.98779	     312.86691	     395.98779
       3.98438	     309.46664	     389.59683	     309.46664	     389.59683
       4.21875	     315.54190	     396.00058	     315.54190	     396.00058
       4.45313	     311.60834	     389.02087	     311.60834	     389.02087
       4.68750	     315.61017	     394.80176	     315.61017	     394.80176
       4.92188	     308.43848	     386.11975	     308.43848	     386.11975
       5.15625	     311.74060	     388.08655	     311.74060	     388.08655
       5.39063	     315.53763	     395.51422	     315.53763	     395.51422
       5.62500	     313.76712	     396.23950	     313.76712	     396.23950
       5.85938	     314.19800	     393.12933	     314.19800	     393.12933
       6.09375	     313.66470	     392.60031	     313.66470	     392.60031
       6.32813	     312.96930	     394.26846	     312.96930	     394.26846
       6.56250	     313.49832	     389.14032	     313.49832	     389.14032
       6.79688	     307.58948	     388.35104	     307.58948	     388.35104
       7.03125	     313.54526	     393.18481	     313.54526	     393.18481
       7.26563	     310.23459	     392.94162	     310.23459	     392.94162
       7.50000	     315.75095	     396.00912	     315.75095	     396.00912
       7.73438	     316.86020	     394.59695	     316.86020	     394.59695
       7.96875	     309.08694	     386.52081	     309.08694	     386.52081
       8.20313	     321.04547	     401.83264	     321.04547	     401.83264
       8.43750	     317.15030	     398.05267	     317.15030	     398.05267
       8.67188	     313.46848	     395.44595	     313.46848	     395.44595
       8.90625	     311.01532	     390.42450	     311.01532	     390.42450
       9.14063	     314.66302	     393.87167	     314.66302	     393.87167
       9.37500	     309.96582	     386.24774	     309.96582	     386.24774
       9.60938	     305.45203	     386.52505	     305.45203	     386.52505
       9.84375	     311.23291	     392.38272	     311.23291	     392.38272
      10.07813	     312.74747	     397.32315	     312.74747	     397.32315
      10.31250	     316.33118	     395.24118	     316.33118	     395.24118
      10.54688	     311.76620	     392.77097	     311.76620	     392.77097
      10.78125	     314.10416	     395.65076	     314.10416	     395.65076
      11.01563	     314.16388	     394.70789	     314.16388	     394.70789
      11.25000	     317.70493	     397.73270	     317.70493	     397.73270
      11.48438	     311.77048	     391.22229	     311.77048	     391.22229
      11.71875	     315.58029	     396.78558	     315.58029	     396.78558
      11.95313	     313.83536	     391.41000	     313.83536	     391.41000
      12.18750	     314.35587	     393.49625	     314.35587	     393.49625
      12.42188	     316.95831	     398.35986	     316.95831	     398.35986
      12.65625	     311.81314	     393.53036	     311.81314	     393.53036
      12.89063	     314.92328	     392.30167	     314.92328	     392.30167
      13.12500	     312.63654	     393.29147	     312.63654	     393.29147
      13.35938	     315.95999	     396.18402	     315.95999	     396.18402
      13.59375	     312.47867	     393.13361	     312.47867	     393.13361
      13.82813	     317.35083	     401.01779	     317.35083	     401.01779
      14.06250	     311.90271	     389.93387	     311.90271	     389.93387
      14.29688	     318.01636	     398.42386	     318.01636	     398.42386
      14.53125	     315.22620	     390.45010	     315.22620	     390.45010
      14.76563	     318.10168	     397.15250	     318.10168	     397.15250
      15.00000	     321.68967	     400.04507	     321.68967	     400.04507
      15.23438	     315.96426	     393.33838	     315.96426	     393.33838
      15.46875	     314.56918	     393.94849	     314.56918	     393.94849
      15.70313	     313.31915	     393.94849	     313.31915	     393.94849
      15.93750	     311.26703	     393.62424	     311.26703	     393.62424
      16.17188	     312.17151	     388.99527	     312.17151	     388.99527
      16.40625	     306.11758	     382.50192	     306.11758	     382.50192
      16.64063	     315.32004	     394.22580	     315.32004	     394.22580
      16.87500	     305.24298	     386.22641	     305.24298	     386.22641
      17.10938	     312.54266	     394.02954	     312.54266	     394.02954
      17.34375	     313.03329	     394.88281	     313.03329	     394.88281
      17.57813	     314.38147	     392.04568	     314.38147	     392.04568
      17.81250	     307.03909	     386.00885	     307.03909	     386.00885
      18.04688	     311.56140	     390.88098	     311.56140	     390.88098
      18.28125	     308.55365	     387.33139	     308.55365	     387.33139
      18.51563	     311.88565	     392.37848	     311.88565	     392.37848
      18.75000	     312.56400	     393.91434	     312.56400	     393.91434
      18.98438	     309.06561	     388.69235	     309.06561	     388.69235
      19.21875	     316.00693	     390.84259	     316.00693	     390.84259
      19.45313	     315.50351	     395.67633	     315.50351	     395.67633
      19.68750	     314.44119	     392.08835	     314.44119	     392.08835
      19.92188	     315.67841	     392.83496	     315.67841	     392.83496
      20.15625	     309.20215	     387.90735	     309.20215	     387.90735
      20.39063	     314.58197	     396.49976	     314.58197	     396.49976
      20.62500	     308.62619	     391.41855	     308.62619	     391.41855
      20.85938	     310.50763	     387.58313	     310.50763	     387.58313
      21.09375	     313.66046	     394.58844	     313.66046	     394.58844
      21.32813	     317.80304	     396.67892	     317.80304	     396.67892
      21.56250	     317.00098	     396.23096	     317.00098	     396.23096
      21.79688	     308.51953	     387.68552	     308.51953	     387.68552
      22.03125	     312.25256	     392.31021	     312.25256	     392.31021
      22.26563	     311.56567	     392.16943	     311.56567	     392.16943
      22.50000	     312.75171	     391.26068	     312.75171	     391.26068
      22.73438	     310.58868	     389.63522	     310.58868	     389.63522
      22.96875	     315.08115	     393.54318	     315.08115	     393.54318
      23.20313	     316.94125	     396.79413	     316.94125	     396.79413
      23.43750	     313.54099	     390.56100	     313.54099	     390.56100
      23.67188	     318.57526	     396.55948	     318.57526	     396.55948
      23.90625	     314.50946	     392.48514	     314.50946	     392.48514
      24.14063	     313.26794	     393.53036	     313.26794	     393.53036
      24.37500	     314.82941	     392.41260	     314.82941	     392.41260
      24.60938	     312.57681	     390.83405	     312.57681	     390.83405
      24.84375	     308.97601	     387.52765	     308.97601	     387.52765
      25.07813	     311.03238	     388.11215	     311.03238	     388.11215
      25.31250	     312.05630	     394.47751	     312.05630	     394.47751
      25.54688	     314.67157	     394.87854	     314.67157	     394.87854
      25.78125	     314.38998	     390.24530	     314.38998	     390.24530
      26.01563	     320.61884	     396.46133	     320.61884	     396.46133
      26.25000	     316.30130	     397.02878	     316.30130	     397.02878
      26.48438	     319.41571	     398.59024	     319.41571	     398.59024
      26.71875	     314.07855	     393.63278	     314.07855	     393.63278
      26.95313	     316.07947	     393.40237	     316.07947	     393.40237
      27.18750	     320.18365	     399.89148	     320.18365	     399.89148
      27.42188	     310.20898	     389.31952	     310.20898	     389.31952
      27.65625	     313.28500	     393.19333	     313.28500	     393.19333
      27.89063	     317.95663	     397.42554	     317.95663	     397.42554
      28.12500	     315.40964	     396.03897	     315.40964	     396.03897
      28.35938	     314.19373	     392.98856	     314.19373	     392.98856
      28.59375	     315.43097	     394.87427	     315.43097	     394.87427
      28.82813	     315.68695	     393.79916	     315.68695	     393.79916
      29.06250	     313.03329	     393.38531	     313.03329	     393.38531
      29.29688	     318.46432	     397.91190	     318.46432	     397.91190
      29.53125	     312.51706	     392.67712	     312.51706	     392.67712
      29.76563	     308.75842	     384.81000	     308.75842	     384.81000
      30.00000	     312.55121	     393.24881	     312.55121	     393.24881
      30.23438	     315.38831	     395.47156	     315.38831	     395.47156
      30.46875	     315.69974	     397.23782	     315.69974	     397.23782
      30.70313	     318.66913	     400.62527	     318.66913	     400.62527
      30.93750	     321.77075	     397.45114	     321.77075	     397.45114
      31.17188	     312.67920	     390.58661	     312.67920	     390.58661
      31.40625	     309.76529	     389.98080	     309.76529	     389.98080
      31.64063	     315.47791	     395.65076	     315.47791	     395.65076
      31.87500	     309.81650	     393.54318	     309.81650	     393.54318
      32.10938	     312.96078	     391.16257	     312.96078	     391.16257
      32.34375	     310.31992	     390.10880	     310.31992	     390.10880
      32.57813	     311.19879	     390.98764	     311.19879	     390.98764
      32.81250	     314.25772	     393.64984	     314.25772	     393.64984
      33.04688	     312.71759	     390.56100	     312.71759	     390.56100
      33.28125	     311.81314	     392.75391	     311.81314	     392.75391
      33.51563	     313.88229	     392.41687	     313.88229	     392.41687
      33.75000	     312.96078	     391.59348	     312.96078	     391.59348
      33.98438	     310.02982	     386.88345	     310.02982	     386.88345
      34.21875	     304.74384	     382.74084	     304.74384	     382.74084
      34.45313	     320.64017	     400.90259	     320.64017	     400.90259
      34.68750	     317.52148	     398.50064	     317.52148	     398.50064
      34.92188	     311.87714	     389.14032	     311.87714	     389.14032
      35.15625	     312.18430	     387.54471	     312.18430	     387.54471
      35.39063	     309.87622	     390.01920	     309.87622	     390.01920
      35.62500	     323.44315	     402.64752	     323.44315	     402.64752
      35.85938	     312.22269	     390.10025	     312.22269	     390.10025
      36.09375	     317.67081	     396.30350	     317.67081	     396.30350
      36.32813	     310.96414	     389.54135	     310.96414	     389.54135
      36.56250	     314.77823	     396.53815	     314.77823	     396.53815
      36.79688	     309.59464	     388.82889	     309.59464	     388.82889
      37.03125	     310.52042	     388.96967	     310.52042	     388.96967
      37.26563	     310.95132	     390.10025	     310.95132	     390.10025
      37.50000	     312.99918	     390.89380	     312.99918	     390.89380
      37.73438	     311.14331	     391.19244	     311.14331	     391.19244
      37.96875	     315.45230	     392.94162	     315.45230	     392.94162
      38.20313	     311.77899	     390.05331	     311.77899	     390.05331
      38.43750	     308.55792	     386.43121	     308.55792	     386.43121
      38.67188	     310.74228	     389.52856	     310.74228	     389.52856
      38.90625	     312.23123	     393.37680	     312.23123	     393.37680
      39.14063	     312.38055	     388.38947	     312.38055	     388.38947
      39.37500	     311.72354	     389.62241	     311.72354	     389.62241
      39.60938	     316.36102	     395.09186	     316.36102	     395.09186
      39.84375	     316.31836	     395.13025	     316.31836	     395.13025
      40.07813	     310.70389	     391.27777	     310.70389	     391.27777
      40.31250	     309.70557	     390.17703	     309.70557	     390.17703
      40.54688	     311.39075	     389.29819	     311.39075	     389.29819
      40.78125	     320.24338	     400.69781	     320.24338	     400.69781
      41.01563	     311.10919	     386.49521	     311.10919	     386.49521
      41.25000	     314.69290	     391.49533	     314.69290	     391.49533
      41.48438	     308.43848	     386.69571	     308.43848	     386.69571
      41.71875	     310.69962	     391.16684	     310.69962	     391.16684
      41.95313	     313.49405	     389.73761	     313.49405	     389.73761
      42.18750	     314.73129	     393.85461	     314.73129	     393.85461
      42.42188	     313.74152	     391.72147	     313.74152	     391.72147
      42.65625	     314.77823	     394.04233	     314.77823	     394.04233
      42.89063	     314.62891	     391.10284	     314.62891	     391.10284
      43.12500	     310.95132	     394.72067	     310.95132	     394.72067
      43.35938	     316.02399	     393.33838	     316.02399	     393.33838
      43.59375	     316.65115	     396.27789	     316.65115	     396.27789
      43.82813	     312.80719	     389.35364	     312.80719	     389.35364
      44.06250	     312.67065	     387.99268	     312.67065	     387.99268
      44.29688	     313.54099	     392.62592	     313.54099	     392.62592
      44.53125	     306.55701	     384.34497	     306.55701	     384.34497
      44.76563	     318.52405	     396.78986	     318.52405	     396.78986
      45.00000	     316.40369	     394.75909	     316.40369	     394.75909
      45.23438	     315.76373	     396.17551	     315.76373	     396.17551
      45.46875	     311.50595	     391.21378	     311.50595	     391.21378
      45.70313	     309.63303	     387.76230	     309.63303	     387.76230
      45.93750	     314.35587	     392.81363	     314.35587	     392.81363
      46.17188	     312.79437	     393.10800	     312.79437	     393.10800
      46.40625	     314.90195	     395.48862	     314.90195	     395.48862
      46.64063	     317.70920	     400.10480	     317.70920	     400.10480
      46.87500	     311.76620	     394.56711	     311.76620	     394.56711
      47.10938	     310.08527	     387.80923	     310.08527	     387.80923
      47.34375	     314.47531	     393.33414	     314.47531	     393.33414
      47.57813	     313.81403	     393.24881	     313.81403	     393.24881
      47.81250	     317.14603	     392.41687	     317.14603	     392.41687
      48.04688	     312.37628	     389.87839	     312.37628	     389.87839
      48.28125	     313.72870	     393.70956	     313.72870	     393.70956
      48.51563	     317.64948	     395.93231	     317.64948	     395.93231
      48.75000	     311.48035	     389.22565	     311.48035	     389.22565
      48.98438	     315.28165	     391.75986	     315.28165	     391.75986
      49.21875	     313.35754	     392.69418	     313.35754	     392.69418
      49.45313	     313.61353	     393.61145	     313.61353	     393.61145
      49.68750	     311.19025	     388.47052	     311.19025	     388.47052
      49.92188	     313.72446	     393.03122	     313.72446	     393.03122
      50.15625	     314.17239	     393.58157	     314.17239	     393.58157
      50.39063	     313.04608	     390.15570	     313.04608	     390.15570
      50.62500	     316.11786	     393.27866	     316.11786	     393.27866
      50.85938	     312.03925	     394.84866	     312.03925	     394.84866
      51.09375	     313.44714	     393.07388	     313.44714	     393.07388
      51.32813	     315.10672	     393.18906	     315.10672	     393.18906
      51.56250	     313.66470	     393.08667	     313.66470	     393.08667
      51.79688	     309.17654	     387.62152	     309.17654	     387.62152
      52.03125	     314.78250	     391.36307	     314.78250	     391.36307
      52.26563	     310.43085	     390.82980	     310.43085	     390.82980
      52.50000	     316.27145	     397.54074	     316.27145	     397.54074
      52.73438	     315.61868	     392.45099	     315.61868	     392.45099
      52.96875	     315.64856	     393.94849	     315.64856	     393.94849
      53.20313	     311.15186	     392.67285	     311.15186	     392.67285
      53.43750	     316.46344	     397.06717	     316.46344	     397.06717
      53.67188	     312.59387	     388.54730	     312.59387	     388.54730
      53.90625	     313.98468	     391.35455	     313.98468	     391.35455
      54.14063	     311.03665	     391.69586	     311.03665	     391.69586
      54.37500	     312.55121	     390.00638	     312.55121	     390.00638
      54.60938	     307.92224	     386.46106	     307.92224	     386.46106
      54.84375	     310.07248	     388.67529	     310.07248	     388.67529
      55.07813	     314.95316	     391.51239	     314.95316	     391.51239
      55.31250	     315.25604	     390.60367	     315.25604	     390.60367
      55.54688	     316.06665	     396.69598	     316.06665	     396.69598
      55.78125	     315.05554	     394.11060	     315.05554	     394.11060
      56.01563	     311.92831	     390.73593	     311.92831	     390.73593
      56.25000	     316.09225	     396.20535	     316.09225	     396.20535
      56.48438	     311.22864	     389.57550	     311.22864	     389.57550
      56.71875	     316.27570	     396.91357	     316.27570	     396.91357
      56.95313	     313.43005	     392.99710	     313.43005	     392.99710
      57.18750	     315.01715	     396.67041	     315.01715	     396.67041
      57.42188	     308.15689	     391.07724	     308.15689	     391.07724
      57.65625	     309.65009	     386.80237	     309.65009	     386.80237
      57.89063	     314.70569	     392.04996	     314.70569	     392.04996
      58.12500	     317.42334	     393.37680	     317.42334	     393.37680
      58.35938	     317.38495	     398.21481	     317.38495	     398.21481
      58.59375	     318.85684	     400.71487	     318.85684	     400.71487
      58.82813	     309.37704	     387.84335	     309.37704	     387.84335
      59.06250	     316.06238	     396.96051	     316.06238	     396.96051
      59.29688	     307.81558	     390.68472	     307.81558	     390.68472
      59.53125	     309.05707	     387.55325	     309.05707	     387.55325

Monitor Diode	 452175.48
"StandardDeviation"
  3.12500E-006	  8.52197E-003
  6.25000E-006	  8.52196E-003
  9.37500E-006	  8.52195E-003
  1.25000E-005	  8.52197E-003
  1.56250E-005	  8.52198E-003
  1.87500E-005	  8.52192E-003
  2.18750E-005	  8.52194E-003
  2.50000E-005	  8.52198E-003
  2.81250E-005	  8.52196E-003
  3.12500E-005	  8.51617E-003
  3.43750E-005	  8.51160E-003
  3.75000E-005	  8.51873E-003
  4.06250E-005	  8.52198E-003
  4.37500E-005	  8.50105E-003
  4.68750E-005	  8.50827E-003
  5.00000E-005	  6.03488E-003
  5.62500E-005	  6.02932E-003
  6.25000E-005	  6.03499E-003
  6.87500E-005	  6.01408E-003
  7.50000E-005	  6.00868E-003
  8.12500E-005	  6.03489E-003
  8.75000E-005	  6.01236E-003
  9.37500E-005	  6.00164E-003
  1.00000E-004	  4.25656E-003
  1.12500E-004	  4.26449E-003
  1.25000E-004	  4.27101E-003
  1.37500E-004	  4.26440E-003
  1.50000E-004	  4.25356E-003
  1.62500E-004	  4.25831E-003
  1.75000E-004	  4.26159E-003
  1.87500E-004	  4.25897E-003
  2.00000E-004	  3.03274E-003
  2.25000E-004	  3.03228E-003
  2.50000E-004	  3.02877E-003
  2.75000E-004	  3.02907E-003
  3.00000E-004	  3.02617E-003
  3.25000E-004	  3.03069E-003
  3.50000E-004	  3.02860E-003
  3.75000E-004	  3.03283E-003
  4.00000E-004	  2.16686E-003
  4.50000E-004	  2.16686E-003
  5.00000E-004	  2.16575E-003
  5.50000E-004	  2.16530E-003
  6.00000E-004	  2.16522E-003
  6.50000E-004	  2.16508E-003
  7.00000E-004	  2.16408E-003
  7.50000E-004	  2.16261E-003
  8.00000E-004	  1.56424E-003
  9.00000E-004	  1.56343E-003
  1.00000E-003	  1.56283E-003
  1.10000E-003	  1.56111E-003
  1.20000E-003	  1.56122E-003
  1.30000E-003	  1.55879E-003
  1.40000E-003	  1.55928E-003
  1.50000E-003	  1.55840E-003
  1.60000E-003	  1.14837E-003
  1.80000E-003	  1.14649E-003
  2.00000E-003	  1.14580E-003
  2.20000E-003	  1.14406E-003
  2.40000E-003	  1.14294E-003
  2.60000E-003	  1.14195E-003
  2.80000E-003	  1.14032E-003
  3.00000E-003	  1.13924E-003
  3.20000E-003	  8.65922E-004
  3.60000E-003	  8.63776E-004
  4.00000E-003	  8.61817E-004
  4.40000E-003	  8.59672E-004
  4.80000E-003	  8.57968E-004
  5.20000E-003	  8.55923E-004
  5.60000E-003	  8.54019E-004
  6.00000E-003	  8.51935E-004
  6.40000E-003	  6.76499E-004
  7.20000E-003	  6.72692E-004
  8.00000E-003	  6.69435E-004
  8.80000E-003	  6.66051E-004
  9.60000E-003	  6.62907E-004
  1.04000E-002	  6.59806E-004
  1.12000E-002	  6.56624E-004
  1.20000E-002	  6.53554E-004
  1.28000E-002	  5.44704E-004
  1.44000E-002	  5.38478E-004
  1.60000E-002	  5.33030E-004
  1.76000E-002	  5.27802E-004
  1.92000E-002	  5.22835E-004
  2.08000E-002	  5.18016E-004
  2.24000E-002	  5.13453E-004
  2.40000E-002	  5.08981E-004
  2.56000E-002	  4.41377E-004
  2.88000E-002	  4.32967E-004
  3.20000E-002	  4.25668E-004
  3.52000E-002	  4.18938E-004
  3.84000E-002	  4.13033E-004
  4.16000E-002	  4.07552E-004
  4.48000E-002	  4.02770E-004
  4.80000E-002	  3.98387E-004
  5.12000E-002	  3.55985E-004
  5.76000E-002	  3.49156E-004
  6.40000E-002	  3.43855E-004
  7.04000E-002	  3.39530E-004
  7.68000E-002	  3.36207E-004
  8.32000E-002	  3.33431E-004
  8.96000E-002	  3.31224E-004
  9.60000E-002	  3.29566E-004
  1.02400E-001	  3.01772E-004
  1.15200E-001	  3.00000E-004
  1.28000E-001	  2.99049E-004
  1.40800E-001	  2.98428E-004
  1.53600E-001	  2.97974E-004
  1.66400E-001	  2.96333E-004
  1.79200E-001	  2.96333E-004
  1.92000E-001	  2.96333E-004
  2.04800E-001	  2.70135E-004
  2.30400E-001	  2.70135E-004
  2.56000E-001	  2.70135E-004
  2.81600E-001	  2.70135E-004
  3.07200E-001	  2.70135E-004
  3.32800E-001	  2.70135E-004
  3.58400E-001	  2.70135E-004
  3.84000E-001	  2.70135E-004
  4.09600E-001	  2.37376E-004
  4.60800E-001	  2.37376E-004
  5.12000E-001	  2.37376E-004
  5.63200E-001	  2.37376E-004
  6.14400E-001	  2.37376E-004
  6.65600E-001	  2.37376E-004
  7.16800E-001	  2.37376E-004
  7.68000E-001	  2.37376E-004
  8.19200E-001	  2.04104E-004
  9.21600E-001	  2.04104E-004
  1.02400E+000	  2.04104E-004
  1.12640E+000	  2.04104E-004
  1.22880E+000	  2.04104E-004
  1.33120E+000	  2.04104E-004
  1.43360E+000	  2.04104E-004
  1.53600E+000	  2.04104E-004
  1.63840E+000	  1.61270E-004
  1.84320E+000	  1.61270E-004
  2.04800E+000	  1.61270E-004
  2.25280E+000	  1.61270E-004
  2.45760E+000	  1.61270E-004
  2.66240E+000	  1.61270E-004
  2.86720E+000	  1.61270E-004
  3.07200E+000	  1.61270E-004
  3.27680E+000	  1.20986E-004
  3.68640E+000	  1.20986E-004
  4.09600E+000	  1.20986E-004
  4.50560E+000	  1.20986E-004
  4.91520E+000	  1.20986E-004
  5.32480E+000	  1.20986E-004
  5.73440E+000	  1.20986E-004
  6.14400E+000	  1.20986E-004
  6.55360E+000	  8.80814E-005
  7.37280E+000	  8.80814E-005
  8.19200E+000	  8.80814E-005
  9.01120E+000	  8.80814E-005
  9.83040E+000	  8.80814E-005
  1.06496E+001	  8.80814E-005
  1.14688E+001	  8.80814E-005
  1.22880E+001	  8.80814E-005
  1.31072E+001	  6.31798E-005
  1.47456E+001	  6.31798E-005
  1.63840E+001	  6.31798E-005
  1.80224E+001	  6.31798E-005
  1.96608E+001	  6.31798E-005
  2.12992E+001	  6.31798E-005
  2.29376E+001	  6.31798E-005
  2.45760E+001	  6.31798E-005
  2.62144E+001	  4.49938E-005
  2.94912E+001	  4.49938E-005
  3.27680E+001	  4.49938E-005
  3.60448E+001	  4.49938E-005
  3.93216E+001	  4.49938E-005
  4.25984E+001	  4.49938E-005
  4.58752E+001	  4.49938E-005
  4.91520E+001	  4.49938E-005
  5.24288E+001	  3.19308E-005
  5.89824E+001	  3.19308E-005
  6.55360E+001	  3.19308E-005
  7.20896E+001	  3.19308E-005
  7.86432E+001	  3.19308E-005
  8.51968E+001	  3.19308E-005
  9.17504E+001	  3.19308E-005
  9.83040E+001	  3.19308E-005
  1.04858E+002	  2.26230E-005
  1.17965E+002	  2.26230E-005
  1.31072E+002	  2.26230E-005
  1.44179E+002	  2.26230E-005
  1.57286E+002	  2.26230E-005
  1.70394E+002	  2.26230E-005
  1.83501E+002	  2.26230E-005
  1.96608E+002	  2.26230E-005
  2.09715E+002	  1.60179E-005
  2.35930E+002	  1.60179E-005
  2.62144E+002	  1.60179E-005
  2.88358E+002	  1.60179E-005
  3.14573E+002	  1.60179E-005
  3.40787E+002	  1.60179E-005
  3.67002E+002	  1.60179E-005
  3.93216E+002	  1.60179E-005
  4.19430E+002	  1.13412E-005
  4.71859E+002	  1.13412E-005
  5.24288E+002	  1.13412E-005
  5.76717E+002	  1.13412E-005
  6.29146E+002	  1.13412E-005
  6.81574E+002	  1.13412E-005
  7.34003E+002	  1.13412E-005
  7.86432E+002	  1.13412E-005
  8.38861E+002	  8.03518E-006
  9.43718E+002	  8.03518E-006
  1.04858E+003	  8.03518E-006
  1.15343E+003	  8.03518E-006
  1.25829E+003	  8.03518E-006
  1.36315E+003	  8.03518E-006
  1.46801E+003	  8.03518E-006
  1.57286E+003	  8.03518E-006
  1.67772E+003	  5.70209E-006
  1.88744E+003	  5.70209E-006
  2.09715E+003	  5.70209E-006
  2.30687E+003	  5.70209E-006
  2.51658E+003	  5.70209E-006
  2.72630E+003	  5.70209E-006
  2.93601E+003	  5.70209E-006
  3.14573E+003	  5.70209E-006
  3.35544E+003	  4.05997E-006
  3.77487E+003	  4.05997E-006
  4.19430E+003	  4.05997E-006
  4.61373E+003	  4.05997E-006
  5.03317E+003	  4.05997E-006
  5.45260E+003	  4.05997E-006
  5.87203E+003	  4.05997E-006
  6.29146E+003	  4.05997E-006
  6.71089E+003	  2.90978E-006
  7.54975E+003	  2.90978E-006
  8.38861E+003	  2.90978E-006
  9.22747E+003	  2.90978E-006
  1.00663E+004	  2.90978E-006
  1.09052E+004	  2.90978E-006
  1.17441E+004	  2.90978E-006
